referenz led_at_750.00nm_cut_at_984.50Y_02.dat
24.04.2023
12:24:31
cut middle at Y: 984.50
top cursor: 1008 down cursor: 961 mean of: 47 lines , 2560 datapoints
wavelength(nm)	intensity[arb. units]
585.996	32770.617
586.124	31816.851
586.252	31440.170
586.380	31517.213
586.508	31556.851
586.637	31580.872
586.765	31694.085
586.893	31660.894
587.021	31628.000
587.149	31718.745
587.277	31637.532
587.405	31689.404
587.533	31577.447
587.662	31785.617
587.790	31611.702
587.918	31596.000
588.046	31617.766
588.174	31487.851
588.302	31643.723
588.430	31453.553
588.558	31419.043
588.687	31485.957
588.815	31297.596
588.943	31247.319
589.071	31151.447
589.199	31220.745
589.327	31167.426
589.455	31020.894
589.583	31151.532
589.712	31041.128
589.840	30943.532
589.968	30980.809
590.096	30950.043
590.224	30891.596
590.352	30896.851
590.480	30835.894
590.608	30847.255
590.737	30864.298
590.865	30762.851
590.993	30707.149
591.121	30780.170
591.249	30709.383
591.377	30796.298
591.505	30638.553
591.633	30728.106
591.762	30725.000
591.890	30763.319
592.018	30760.340
592.146	30706.681
592.274	30762.340
592.402	30726.149
592.530	30736.340
592.658	30941.723
592.787	30769.362
592.915	30952.532
593.043	30910.255
593.171	30869.021
593.299	30954.830
593.427	30983.489
593.555	31009.894
593.683	31020.404
593.812	31125.064
593.940	31087.894
594.068	31256.830
594.196	31351.511
594.324	31385.638
594.452	31377.298
594.580	31519.234
594.708	31610.766
594.837	31572.170
594.965	31699.723
595.093	31828.787
595.221	31726.809
595.349	31970.149
595.477	31939.213
595.605	31999.936
595.733	31959.128
595.862	32294.149
595.990	32091.830
596.118	32125.957
596.246	32368.362
596.374	32235.638
596.502	32346.915
596.630	32328.191
596.758	32369.128
596.887	32314.723
597.015	32289.638
597.143	32472.596
597.271	32312.830
597.399	32318.830
597.527	32300.106
597.655	32402.277
597.783	32242.957
597.912	32305.277
598.040	32222.319
598.168	32241.702
598.296	32283.894
598.424	32179.255
598.552	32159.745
598.680	32125.000
598.808	32142.851
598.937	32059.085
599.065	31929.702
599.193	31908.617
599.321	31917.213
599.449	31791.872
599.577	31811.681
599.705	31885.234
599.833	31722.851
599.962	31715.532
600.090	31758.340
600.218	31740.574
600.346	31677.702
600.474	31649.043
600.602	31678.851
600.730	31727.851
600.858	31632.745
600.987	31806.936
601.115	31744.468
601.243	31851.872
601.371	31776.298
601.499	31814.234
601.627	31837.340
601.755	31830.340
601.883	31922.234
602.012	32012.660
602.140	31987.000
602.268	32170.532
602.396	32164.468
602.524	32355.681
602.652	32404.851
602.780	32455.426
602.908	32584.362
603.037	32659.809
603.165	32684.979
603.293	32848.255
603.421	32897.000
603.549	32895.617
603.677	33186.638
603.805	33233.298
603.933	33330.255
604.062	33475.213
604.190	33542.851
604.318	33625.064
604.446	33733.468
604.574	33859.170
604.702	33867.979
604.830	33976.362
604.958	34022.000
605.087	34140.298
605.215	34168.894
605.343	34300.404
605.471	34344.830
605.599	34422.000
605.727	34428.872
605.855	34527.787
605.983	34648.574
606.112	34730.532
606.240	34704.638
606.368	34722.064
606.496	34901.723
606.624	34790.043
606.752	34901.277
606.880	35013.340
607.008	35166.128
607.137	35055.043
607.265	34854.723
607.393	34914.766
607.521	34929.553
607.649	34904.191
607.777	34783.489
607.905	34783.681
608.033	34699.426
608.162	34721.957
608.290	34641.383
608.418	34607.915
608.546	34586.915
608.674	34512.957
608.802	34521.043
608.930	34405.809
609.058	34432.723
609.187	34441.638
609.315	34396.085
609.443	34260.830
609.571	34225.809
609.699	34074.426
609.827	34162.830
609.955	34096.957
610.083	34034.404
610.212	33942.872
610.340	33875.000
610.468	33925.745
610.596	33994.745
610.724	34028.021
610.852	33918.894
610.980	33918.170
611.108	33977.021
611.237	33879.851
611.365	33911.255
611.493	33927.723
611.621	33965.872
611.749	33998.957
611.877	34092.766
612.005	34016.872
612.133	34098.617
612.262	34177.191
612.390	34150.915
612.518	34170.851
612.646	34359.553
612.774	34336.170
612.902	34372.064
613.030	34402.277
613.158	34544.766
613.287	34635.574
613.415	34594.681
613.543	34717.255
613.671	34806.362
613.799	34912.723
613.927	34935.915
614.055	34986.021
614.183	35121.468
614.312	35050.979
614.440	35153.234
614.568	35197.340
614.696	35272.000
614.824	35542.362
614.952	35437.383
615.080	35464.872
615.208	35533.447
615.337	35558.574
615.465	35626.638
615.593	35717.128
615.721	35732.191
615.849	35768.957
615.977	35934.383
616.105	36011.340
616.233	36031.511
616.362	36198.319
616.490	36173.447
616.618	36202.021
616.746	36095.638
616.874	36251.447
617.002	36194.319
617.130	36277.681
617.258	36342.745
617.387	36215.830
617.515	36382.277
617.643	36359.170
617.771	36336.043
617.899	36288.681
618.027	36423.489
618.155	36473.277
618.283	36405.468
618.412	36456.362
618.540	36465.617
618.668	36449.574
618.796	36496.660
618.924	36606.106
619.052	36517.234
619.180	36459.809
619.308	36478.660
619.437	36530.383
619.565	36554.404
619.693	36569.745
619.821	36528.298
619.949	36457.894
620.077	36580.064
620.205	36530.681
620.333	36640.383
620.462	36656.894
620.590	36633.234
620.718	36592.000
620.846	36649.957
620.974	36616.362
621.102	36573.404
621.230	36632.128
621.358	36692.702
621.487	36525.319
621.615	36481.745
621.743	36552.723
621.871	36552.191
621.999	36536.723
622.127	36506.404
622.255	36579.915
622.383	36435.383
622.512	36406.957
622.640	36541.957
622.768	36301.809
622.896	36269.383
623.024	36263.170
623.152	36281.426
623.280	36291.234
623.408	36236.489
623.537	36137.702
623.665	36163.426
623.793	36215.872
623.921	36128.702
624.049	36140.298
624.177	36057.830
624.305	36139.128
624.433	36081.957
624.562	36093.234
624.690	36040.723
624.818	36057.979
624.946	36142.319
625.074	35995.915
625.202	35923.702
625.330	35804.426
625.458	35865.766
625.587	35853.532
625.715	35809.787
625.843	35947.532
625.971	35838.000
626.099	35814.213
626.227	35787.660
626.355	35729.128
626.483	35869.979
626.612	35778.660
626.740	35776.660
626.868	35855.468
626.996	35871.872
627.124	35844.660
627.252	35842.489
627.380	35827.255
627.508	35892.532
627.637	35710.915
627.765	35785.362
627.893	35838.319
628.021	35888.426
628.149	36095.064
628.277	36159.043
628.405	36174.340
628.533	35850.638
628.662	35823.128
628.790	35897.936
628.918	35953.191
629.046	35916.681
629.174	36121.723
629.302	36287.085
629.430	36151.787
629.558	36044.915
629.687	36039.915
629.815	36098.000
629.943	36065.106
630.071	36111.319
630.199	36175.277
630.327	36141.766
630.455	36255.723
630.583	36286.277
630.712	36155.064
630.840	36247.894
630.968	36208.447
631.096	36196.851
631.224	36230.723
631.352	36213.894
631.480	36151.489
631.608	36333.766
631.737	36281.404
631.865	36309.234
631.993	36131.851
632.121	36263.681
632.249	36322.255
632.377	36260.723
632.505	36304.979
632.633	36077.319
632.762	36150.511
632.890	36321.702
633.018	36036.149
633.146	36207.617
633.274	36146.106
633.402	36114.191
633.530	36007.553
633.658	36102.979
633.787	35847.362
633.915	35900.894
634.043	35865.383
634.171	35782.787
634.299	35672.255
634.427	35768.447
634.555	35698.170
634.683	35656.851
634.812	35500.915
634.940	35577.149
635.068	35514.830
635.196	35416.957
635.324	35383.213
635.452	35287.085
635.580	35242.021
635.708	35099.957
635.837	35138.404
635.965	34909.511
636.093	34869.830
636.221	34829.021
636.349	34826.638
636.477	34661.383
636.605	34844.043
636.733	34474.021
636.862	34516.447
636.990	34397.277
637.118	34349.979
637.246	34384.021
637.374	34276.638
637.502	34251.191
637.630	34038.000
637.758	34101.021
637.887	34022.511
638.015	33928.532
638.143	33839.489
638.271	33807.979
638.399	33753.021
638.527	33681.383
638.655	33678.553
638.783	33715.426
638.912	33487.128
639.040	33513.809
639.168	33417.660
639.296	33416.447
639.424	33512.894
639.552	33397.255
639.680	33511.106
639.808	33389.851
639.937	33243.000
640.065	33115.511
640.193	33240.000
640.321	33156.511
640.449	33183.532
640.577	33179.426
640.705	33113.596
640.833	33167.766
640.962	33128.979
641.090	33040.277
641.218	33061.638
641.346	33020.319
641.474	33115.468
641.602	33107.426
641.730	33083.553
641.858	33135.787
641.987	33238.638
642.115	33118.191
642.243	33241.809
642.371	33202.149
642.499	33182.617
642.627	33195.638
642.755	33203.277
642.883	33267.340
643.012	33172.596
643.140	33110.723
643.268	33146.766
643.396	33089.745
643.524	33154.064
643.652	33110.872
643.780	33071.915
643.908	33180.723
644.037	33070.809
644.165	32989.064
644.293	33068.532
644.421	33099.957
644.549	33058.170
644.677	32993.894
644.805	33012.723
644.933	32924.191
645.062	32893.447
645.190	32920.362
645.318	32999.979
645.446	32841.149
645.574	32827.766
645.702	32833.660
645.830	32932.574
645.958	32671.447
646.087	32945.404
646.215	32571.277
646.343	32758.277
646.471	32535.745
646.599	32498.064
646.727	32463.447
646.855	32343.702
646.983	32398.723
647.112	32249.723
647.240	32394.511
647.368	32184.043
647.496	32188.872
647.624	32121.340
647.752	32071.723
647.880	31940.830
648.008	31894.255
648.137	31879.596
648.265	31820.702
648.393	31801.511
648.521	31743.660
648.649	31623.957
648.777	31602.723
648.905	31480.723
649.033	31410.957
649.162	31381.851
649.290	31367.617
649.418	31246.809
649.546	31281.489
649.674	31132.085
649.802	31095.043
649.930	31149.340
650.058	30901.894
650.187	30797.362
650.315	30761.234
650.443	30753.298
650.571	30640.340
650.699	30605.383
650.827	30496.617
650.955	30356.021
651.083	30406.617
651.212	30402.404
651.340	30299.511
651.468	30130.766
651.596	30029.340
651.724	30039.043
651.852	29897.298
651.980	29830.872
652.108	29833.021
652.237	29675.383
652.365	29773.596
652.493	29623.915
652.621	29537.745
652.749	29544.128
652.877	29436.979
653.005	29340.319
653.133	29221.702
653.262	29219.277
653.390	29170.000
653.518	29166.532
653.646	29057.128
653.774	29153.681
653.902	28883.447
654.030	28918.213
654.158	28839.170
654.287	28778.255
654.415	28687.915
654.543	28687.915
654.671	28557.340
654.799	28504.319
654.927	28460.830
655.055	28347.447
655.183	28335.064
655.312	28291.787
655.440	28245.085
655.568	28096.489
655.696	28129.468
655.824	28121.043
655.952	27998.851
656.080	27869.723
656.208	27877.830
656.337	27747.277
656.465	27739.298
656.593	27623.574
656.721	27431.660
656.849	27503.213
656.977	27392.638
657.105	27318.638
657.233	27305.894
657.362	27230.447
657.490	27147.170
657.618	27063.085
657.746	26994.191
657.874	26903.362
658.002	26845.894
658.130	26738.660
658.258	26649.170
658.387	26664.191
658.515	26537.553
658.643	26452.128
658.771	26409.957
658.899	26341.532
659.027	26303.511
659.155	26248.617
659.283	26296.532
659.412	26050.277
659.540	26099.894
659.668	25908.447
659.796	25941.872
659.924	25852.830
660.052	25747.723
660.180	25604.894
660.308	25661.106
660.437	25517.043
660.565	25443.468
660.693	25446.362
660.821	25364.277
660.949	25221.277
661.077	25180.191
661.205	25159.277
661.333	25068.660
661.462	25194.979
661.590	24987.404
661.718	25102.617
661.846	24883.234
661.974	25033.681
662.102	24825.426
662.230	24759.234
662.358	24663.128
662.487	24693.745
662.615	24603.851
662.743	24519.383
662.871	24521.745
662.999	24524.532
663.127	24427.723
663.255	24518.915
663.383	24464.043
663.512	24379.723
663.640	24370.128
663.768	24313.830
663.896	24323.426
664.024	24278.362
664.152	24212.702
664.280	24231.617
664.408	24170.149
664.537	24155.447
664.665	24087.404
664.793	24017.298
664.921	24041.979
665.049	23931.957
665.177	23944.851
665.305	23928.936
665.433	23820.553
665.562	23839.383
665.690	23850.681
665.818	23988.979
665.946	23851.298
666.074	23689.957
666.202	23696.319
666.330	23745.319
666.458	23699.851
666.587	23670.553
666.715	23662.936
666.843	23614.489
666.971	23557.064
667.099	23608.660
667.227	23517.532
667.355	23541.234
667.483	23502.489
667.612	23451.447
667.740	23380.809
667.868	23433.638
667.996	23325.638
668.124	23248.596
668.252	23278.489
668.380	23238.936
668.508	23231.043
668.637	23165.064
668.765	23101.128
668.893	23118.234
669.021	22966.553
669.149	23002.064
669.277	22990.383
669.405	22833.298
669.533	22793.340
669.662	22984.894
669.790	22696.319
669.918	22705.362
670.046	22560.957
670.174	22648.000
670.302	22581.213
670.430	22454.085
670.558	22487.362
670.687	22270.766
670.815	22394.745
670.943	22266.936
671.071	22208.404
671.199	22169.745
671.327	22003.915
671.455	21998.191
671.583	21941.106
671.712	22021.128
671.840	21856.830
671.968	21755.447
672.096	21594.298
672.224	21618.830
672.352	21669.362
672.480	21499.915
672.608	21326.936
672.737	21278.638
672.865	21356.851
672.993	21173.617
673.121	21084.596
673.249	20951.532
673.377	20969.085
673.505	20847.638
673.633	20747.745
673.762	20648.511
673.890	20566.128
674.018	20746.106
674.146	20455.511
674.274	20373.468
674.402	20443.191
674.530	20199.809
674.658	20175.809
674.787	20033.617
674.915	19954.915
675.043	20005.085
675.171	19906.830
675.299	19749.766
675.427	19684.085
675.555	19590.979
675.683	19523.532
675.812	19461.128
675.940	19365.298
676.068	19282.064
676.196	19234.298
676.324	19114.064
676.452	19076.255
676.580	19029.170
676.708	18960.404
676.837	18899.404
676.965	18789.064
677.093	18716.383
677.221	18651.149
677.349	18615.170
677.477	18598.128
677.605	18417.255
677.733	18366.574
677.862	18226.702
677.990	18194.064
678.118	18170.106
678.246	18118.447
678.374	18077.191
678.502	17976.702
678.630	17892.532
678.758	17838.106
678.887	17749.872
679.015	17680.936
679.143	17691.596
679.271	17564.830
679.399	17547.894
679.527	17532.532
679.655	17358.766
679.783	17419.936
679.912	17351.064
680.040	17273.617
680.168	17266.915
680.296	17167.766
680.424	17073.723
680.552	17087.383
680.680	17098.957
680.808	16929.915
680.937	16908.468
681.065	16778.766
681.193	16798.404
681.321	16793.191
681.449	16693.383
681.577	16753.043
681.705	16685.894
681.833	16581.106
681.962	16517.809
682.090	16668.277
682.218	16454.447
682.346	16387.957
682.474	16436.362
682.602	16338.617
682.730	16410.468
682.858	16294.574
682.987	16307.021
683.115	16268.553
683.243	16199.638
683.371	16186.702
683.499	16235.191
683.627	16191.362
683.755	16168.638
683.883	16214.426
684.012	16069.021
684.140	16028.723
684.268	16018.213
684.396	16001.830
684.524	15995.064
684.652	15960.340
684.780	15932.894
684.908	15943.957
685.037	15762.532
685.165	15780.426
685.293	15709.447
685.421	15767.915
685.549	15613.447
685.677	15597.809
685.805	15689.021
685.933	15587.468
686.062	15511.745
686.190	15463.106
686.318	15517.191
686.446	15377.447
686.574	15356.383
686.702	15388.936
686.830	15381.000
686.958	15210.170
687.087	15198.511
687.215	15231.277
687.343	15110.426
687.471	15106.681
687.599	15031.362
687.727	15181.574
687.855	14964.574
687.983	14988.021
688.112	14982.064
688.240	14833.447
688.368	14824.277
688.496	14829.830
688.624	14763.872
688.752	14666.383
688.880	14647.362
689.008	14632.702
689.137	14597.383
689.265	14495.043
689.393	14490.660
689.521	14369.574
689.649	14435.468
689.777	14400.596
689.905	14291.894
690.033	14315.894
690.162	14231.426
690.290	14189.660
690.418	14138.574
690.546	14199.617
690.674	14130.660
690.802	14002.617
690.930	13986.936
691.058	13943.319
691.187	13851.064
691.315	13862.979
691.443	13871.213
691.571	13752.638
691.699	13753.489
691.827	13699.511
691.955	13607.128
692.083	13563.021
692.212	13628.723
692.340	13466.511
692.468	13474.064
692.596	13388.596
692.724	13479.617
692.852	13298.957
692.980	13367.596
693.108	13228.617
693.237	13165.064
693.365	13089.723
693.493	13019.787
693.621	12994.298
693.749	12912.681
693.877	12945.617
694.005	12960.489
694.133	12820.745
694.262	12816.787
694.390	12677.277
694.518	12682.957
694.646	12668.106
694.774	12639.234
694.902	12721.277
695.030	12611.830
695.158	12474.404
695.287	12494.532
695.415	12395.787
695.543	12325.681
695.671	12436.021
695.799	12287.043
695.927	12255.936
696.055	12168.021
696.183	12135.383
696.312	12109.766
696.440	12175.000
696.568	12074.936
696.696	12050.085
696.824	11931.851
696.952	11914.213
697.080	11905.064
697.208	11795.617
697.337	11804.085
697.465	11753.787
697.593	11649.511
697.721	11686.021
697.849	11619.277
697.977	11592.021
698.105	11617.596
698.233	11451.532
698.362	11487.915
698.490	11442.021
698.618	11352.213
698.746	11413.106
698.874	11281.043
699.002	11465.255
699.130	11210.851
699.258	11151.766
699.387	11095.723
699.515	11078.277
699.643	11042.128
699.771	11026.021
699.899	10947.234
700.027	10912.383
700.155	10857.638
700.283	10842.851
700.412	10818.000
700.540	10773.170
700.668	10768.702
700.796	10641.447
700.924	10569.660
701.052	10564.383
701.180	10644.681
701.308	10496.574
701.437	10403.957
701.565	10324.936
701.693	10303.809
701.821	10315.979
701.949	10308.298
702.077	10241.596
702.205	10102.404
702.333	10095.766
702.462	10050.149
702.590	10009.979
702.718	9941.553
702.846	9932.106
702.974	9858.681
703.102	9838.149
703.230	9907.426
703.358	9779.106
703.487	9660.298
703.615	9835.915
703.743	9655.617
703.871	9555.468
703.999	9561.872
704.127	9563.447
704.255	9370.043
704.383	9497.362
704.512	9325.298
704.640	9268.532
704.768	9218.894
704.896	9265.681
705.024	9097.191
705.152	9187.170
705.280	9058.979
705.408	8969.468
705.537	8963.830
705.665	8906.426
705.793	8833.851
705.921	8799.553
706.049	8801.149
706.177	8664.787
706.305	8677.128
706.433	8741.511
706.562	8607.426
706.690	8536.149
706.818	8471.617
706.946	8688.340
707.074	8442.106
707.202	8351.617
707.330	8435.277
707.458	8325.170
707.587	8239.340
707.715	8240.936
707.843	8232.787
707.971	8191.085
708.099	8155.660
708.227	8046.532
708.355	8010.298
708.483	7947.340
708.612	7907.702
708.740	7948.213
708.868	7969.766
708.996	7863.894
709.124	7819.404
709.252	7766.213
709.380	7731.872
709.508	7768.468
709.637	7665.106
709.765	7639.000
709.893	7653.298
710.021	7618.574
710.149	7558.979
710.277	7605.894
710.405	7463.766
710.533	7483.213
710.662	7432.596
710.790	7386.787
710.918	7410.149
711.046	7356.681
711.174	7317.191
711.302	7344.766
711.430	7366.362
711.558	7187.468
711.687	7190.851
711.815	7250.872
711.943	7164.426
712.071	7132.511
712.199	7130.787
712.327	7138.383
712.455	7067.149
712.583	7064.085
712.712	7004.213
712.840	6978.894
712.968	6957.170
713.096	6940.255
713.224	6874.830
713.352	6884.957
713.480	6874.511
713.608	6856.468
713.737	6832.511
713.865	6843.936
713.993	6835.830
714.121	6751.340
714.249	6776.319
714.377	6811.723
714.505	6702.915
714.633	6831.745
714.762	6693.872
714.890	6631.255
715.018	6627.447
715.146	6611.936
715.274	6639.043
715.402	6707.660
715.530	6582.936
715.658	6459.149
715.787	6481.979
715.915	6620.128
716.043	6415.128
716.171	6463.255
716.299	6477.851
716.427	6372.213
716.555	6346.553
716.683	6300.596
716.812	6299.106
716.940	6300.128
717.068	6201.447
717.196	6395.362
717.324	6306.787
717.452	6219.936
717.580	6153.191
717.708	6147.383
717.837	6187.809
717.965	6069.106
718.093	6091.872
718.221	6006.362
718.349	6049.851
718.477	6027.723
718.605	6026.830
718.733	5925.596
718.862	5935.894
718.990	5912.936
719.118	5901.830
719.246	5841.000
719.374	5889.191
719.502	5792.702
719.630	5921.106
719.758	5696.383
719.887	5701.979
720.015	5889.234
720.143	5611.617
720.271	5662.766
720.399	5639.511
720.527	5642.553
720.655	5622.787
720.783	5619.426
720.912	5512.426
721.040	5512.872
721.168	5428.915
721.296	5506.574
721.424	5408.021
721.552	5345.234
721.680	5324.149
721.808	5359.915
721.937	5315.617
722.065	5386.362
722.193	5399.489
722.321	5243.745
722.449	5174.660
722.577	5182.638
722.705	5116.447
722.833	5150.298
722.962	5144.426
723.090	5029.511
723.218	4987.277
723.346	4998.915
723.474	4959.468
723.602	5092.553
723.730	5028.149
723.858	5094.596
723.987	4941.043
724.115	4955.191
724.243	4873.085
724.371	4867.149
724.499	4872.787
724.627	4773.191
724.755	4738.681
724.883	4709.979
725.012	4726.809
725.140	4739.149
725.268	4654.319
725.396	4594.277
725.524	4573.149
725.652	4601.362
725.780	4573.872
725.908	4601.809
726.037	4668.468
726.165	4476.830
726.293	4420.532
726.421	4429.106
726.549	4388.064
726.677	4381.894
726.805	4342.447
726.933	4299.979
727.062	4339.723
727.190	4293.723
727.318	4234.936
727.446	4242.404
727.574	4241.809
727.702	4333.702
727.830	4157.702
727.958	4237.191
728.087	4154.723
728.215	4246.745
728.343	4196.617
728.471	4108.426
728.599	4053.468
728.727	4156.766
728.855	4031.723
728.983	4008.277
729.112	4022.511
729.240	3963.362
729.368	3982.021
729.496	3972.723
729.624	3960.830
729.752	3913.000
729.880	3907.617
730.008	3871.511
730.137	3858.106
730.265	4042.447
730.393	3816.702
730.521	3912.255
730.649	3794.170
730.777	3778.553
730.905	3752.872
731.033	3855.191
731.162	3962.915
731.290	3837.277
731.418	3919.638
731.546	3858.447
731.674	3749.064
731.802	3740.404
731.930	3638.426
732.058	3585.915
732.187	3611.468
732.315	3576.468
732.443	3532.957
732.571	3723.064
732.699	3594.021
732.827	3558.170
732.955	3497.426
733.083	3453.872
733.212	3526.596
733.340	3528.277
733.468	3530.085
733.596	3421.191
733.724	3428.043
733.852	3409.426
733.980	3381.234
734.108	3560.745
734.237	3465.957
734.365	3453.957
734.493	3354.809
734.621	3324.830
734.749	3327.447
734.877	3323.660
735.005	3349.255
735.133	3369.489
735.262	3339.596
735.390	3230.745
735.518	3370.362
735.646	3174.383
735.774	3187.702
735.902	3182.553
736.030	3159.957
736.158	3220.830
736.287	3141.936
736.415	3346.617
736.543	3110.234
736.671	3104.574
736.799	3095.340
736.927	3115.043
737.055	3069.894
737.183	3177.213
737.312	3117.234
737.440	3064.191
737.568	3074.191
737.696	2990.851
737.824	3037.426
737.952	3027.574
738.080	2965.851
738.208	2957.915
738.337	2967.447
738.465	2984.404
738.593	2895.043
738.721	2877.596
738.849	2904.894
738.977	2864.660
739.105	2926.638
739.233	2826.191
739.362	2848.404
739.490	2775.234
739.618	2762.532
739.746	2761.766
739.874	2962.957
740.002	2890.404
740.130	2786.574
740.258	2707.298
740.387	2637.511
740.515	2825.596
740.643	2629.936
740.771	2674.553
740.899	2642.170
741.027	2729.681
741.155	2755.426
741.283	2574.809
741.412	2552.149
741.540	2591.511
741.668	2701.532
741.796	2731.702
741.924	2616.404
742.052	2545.936
742.180	2712.298
742.308	2545.340
742.437	2582.128
742.565	2637.745
742.693	2682.404
742.821	2590.957
742.949	2592.064
743.077	2531.213
743.205	2556.191
743.333	2543.213
743.462	2511.830
743.590	2562.255
743.718	2533.213
743.846	2559.936
743.974	2537.830
744.102	2534.213
744.230	2526.574
744.358	2483.915
744.487	2483.915
744.615	2503.936
744.743	2450.489
744.871	2444.596
744.999	2490.830
745.127	2433.809
745.255	2426.064
745.383	2458.574
745.512	2433.957
745.640	2384.872
745.768	2417.468
745.896	2414.681
746.024	2386.957
746.152	2366.213
746.280	2378.851
746.408	2362.043
746.537	2357.957
746.665	2351.809
746.793	2334.830
746.921	2291.809
747.049	2331.191
747.177	2321.319
747.305	2333.766
747.433	2337.809
747.562	2271.128
747.690	2270.021
747.818	2293.191
747.946	2276.915
748.074	2352.681
748.202	2266.383
748.330	2243.809
748.458	2249.787
748.587	2203.340
748.715	2202.681
748.843	2219.298
748.971	2186.809
749.099	2187.979
749.227	2218.085
749.355	2160.000
749.483	2165.830
749.612	2136.298
749.740	2137.553
749.868	2137.511
749.996	2142.447
750.124	2109.596
750.252	2107.489
750.380	2106.489
750.508	2072.170
750.637	2082.745
750.765	2100.426
750.893	2086.149
751.021	2100.404
751.149	2071.021
751.277	2093.447
751.405	2085.511
751.533	2098.191
751.662	2033.000
751.790	2049.915
751.918	1999.766
752.046	2005.660
752.174	1982.340
752.302	2037.979
752.430	1981.957
752.558	1935.936
752.687	1947.468
752.815	1953.213
752.943	1917.936
753.071	1927.638
753.199	1920.638
753.327	1957.362
753.455	1907.106
753.583	1874.383
753.712	1881.298
753.840	1859.319
753.968	1848.596
754.096	1840.191
754.224	1819.936
754.352	1825.660
754.480	1819.872
754.608	1804.809
754.737	1809.936
754.865	1834.234
754.993	1797.213
755.121	1793.021
755.249	1845.702
755.377	1795.660
755.505	1762.638
755.633	1771.489
755.762	1750.298
755.890	1799.064
756.018	1793.362
756.146	1719.404
756.274	1732.149
756.402	1706.128
756.530	1713.043
756.658	1729.043
756.787	1693.277
756.915	1650.894
757.043	1681.553
757.171	1690.681
757.299	1661.340
757.427	1637.894
757.555	1639.723
757.683	1664.617
757.812	1596.340
757.940	1616.426
758.068	1605.851
758.196	1579.787
758.324	1578.660
758.452	1670.532
758.580	1549.149
758.708	1566.553
758.837	1555.213
758.965	1616.149
759.093	1519.489
759.221	1517.809
759.349	1516.511
759.477	1519.766
759.605	1507.064
759.733	1503.787
759.862	1488.000
759.990	1483.681
760.118	1488.511
760.246	1462.702
760.374	1477.745
760.502	1485.234
760.630	1447.872
760.758	1450.596
760.887	1417.745
761.015	1426.255
761.143	1417.447
761.271	1418.170
761.399	1372.830
761.527	1405.255
761.655	1414.574
761.783	1393.404
761.912	1389.830
762.040	1379.809
762.168	1408.362
762.296	1379.000
762.424	1359.574
762.552	1368.128
762.680	1421.532
762.808	1317.511
762.937	1354.809
763.065	1378.638
763.193	1376.043
763.321	1355.085
763.449	1291.681
763.577	1318.021
763.705	1309.000
763.833	1389.234
763.962	1300.489
764.090	1275.766
764.218	1300.872
764.346	1300.170
764.474	1265.298
764.602	1272.191
764.730	1252.106
764.858	1265.574
764.987	1252.383
765.115	1313.979
765.243	1238.106
765.371	1233.149
765.499	1203.234
765.627	1222.404
765.755	1221.191
765.883	1226.723
766.012	1207.681
766.140	1203.234
766.268	1191.809
766.396	1170.255
766.524	1203.043
766.652	1177.851
766.780	1166.149
766.908	1169.085
767.037	1181.128
767.165	1175.532
767.293	1233.745
767.421	1155.617
767.549	1143.979
767.677	1159.511
767.805	1137.787
767.933	1142.596
768.062	1144.979
768.190	1137.340
768.318	1113.681
768.446	1140.319
768.574	1132.894
768.702	1131.596
768.830	1103.702
768.958	1107.489
769.087	1091.660
769.215	1102.277
769.343	1087.362
769.471	1069.957
769.599	1107.298
769.727	1092.277
769.855	1072.021
769.983	1062.319
770.112	1060.234
770.240	1033.617
770.368	1057.447
770.496	1020.915
770.624	1030.936
770.752	1053.064
770.880	1065.128
771.008	1029.511
771.137	1032.447
771.265	1058.128
771.393	1040.638
771.521	1006.149
771.649	1008.255
771.777	1011.894
771.905	996.468
772.033	1003.043
772.162	1016.766
772.290	990.574
772.418	1033.830
772.546	1000.128
772.674	972.809
772.802	984.915
772.930	1018.213
773.058	966.000
773.187	977.979
773.315	954.404
773.443	970.894
773.571	958.596
773.699	956.553
773.827	928.468
773.955	972.851
774.083	955.404
774.212	934.596
774.340	958.936
774.468	925.404
774.596	929.170
774.724	925.745
774.852	922.553
774.980	917.383
775.108	903.298
775.237	913.149
775.365	899.000
775.493	912.957
775.621	891.149
775.749	903.574
775.877	893.766
776.005	894.213
776.133	900.553
776.262	893.787
776.390	851.787
776.518	901.979
776.646	862.404
776.774	879.362
776.902	861.681
777.030	855.617
777.158	854.021
777.287	870.596
777.415	841.000
777.543	844.489
777.671	835.489
777.799	830.532
777.927	834.766
778.055	839.681
778.183	830.404
778.312	802.213
778.440	821.255
778.568	826.255
778.696	799.617
778.824	825.021
778.952	802.106
779.080	798.340
779.208	819.787
779.337	804.362
779.465	798.426
779.593	779.723
779.721	802.043
779.849	783.106
779.977	782.128
780.105	762.766
780.233	778.043
780.362	802.064
780.490	805.872
780.618	763.489
780.746	771.085
780.874	747.617
781.002	763.106
781.130	744.000
781.258	734.489
781.387	741.574
781.515	760.043
781.643	745.319
781.771	781.936
781.899	738.660
782.027	770.596
782.155	736.872
782.283	733.745
782.412	719.277
782.540	721.702
782.668	748.702
782.796	696.596
782.924	734.638
783.052	691.617
783.180	726.936
783.308	683.553
783.437	697.936
783.565	697.745
783.693	702.809
783.821	687.340
783.949	684.106
784.077	707.106
784.205	672.489
784.333	731.149
784.462	666.532
784.590	676.532
784.718	693.426
784.846	655.404
784.974	681.511
785.102	712.234
785.230	663.979
785.358	709.085
785.487	660.085
785.615	654.553
785.743	654.064
785.871	655.085
785.999	650.702
786.127	632.191
786.255	650.255
786.383	673.319
786.512	671.213
786.640	644.766
786.768	650.532
786.896	620.830
787.024	625.851
787.152	636.745
787.280	628.830
787.408	621.468
787.537	638.894
787.665	634.213
787.793	644.936
787.921	617.723
788.049	615.426
788.177	602.489
788.305	599.298
788.433	634.043
788.562	606.362
788.690	597.553
788.818	604.383
788.946	615.255
789.074	592.213
789.202	610.553
789.330	610.532
789.458	588.596
789.587	654.298
789.715	591.000
789.843	598.043
789.971	593.596
790.099	591.426
790.227	597.000
790.355	576.638
790.483	603.043
790.612	583.489
790.740	587.872
790.868	594.723
790.996	580.681
791.124	579.872
791.252	574.277
791.380	576.362
791.508	583.404
791.637	574.936
791.765	550.553
791.893	564.000
792.021	557.447
792.149	562.936
792.277	555.532
792.405	544.681
792.533	574.723
792.662	527.574
792.790	537.787
792.918	569.574
793.046	539.681
793.174	564.106
793.302	546.681
793.430	553.872
793.558	533.681
793.687	542.340
793.815	536.426
793.943	561.553
794.071	545.064
794.199	532.723
794.327	541.574
794.455	610.617
794.583	626.936
794.712	522.319
794.840	527.383
794.968	533.787
795.096	549.957
795.224	515.277
795.352	520.702
795.480	561.511
795.608	537.128
795.737	524.021
795.865	513.149
795.993	509.745
796.121	492.894
796.249	513.021
796.377	524.745
796.505	509.277
796.633	493.064
796.762	494.128
796.890	504.830
797.018	511.936
797.146	487.277
797.274	479.511
797.402	496.894
797.530	504.766
797.658	489.362
797.787	526.021
797.915	486.745
798.043	502.723
798.171	471.809
798.299	486.468
798.427	473.681
798.555	493.532
798.683	461.787
798.812	472.596
798.940	540.149
799.068	478.617
799.196	512.745
799.324	472.596
799.452	482.809
799.580	457.787
799.708	510.638
799.837	449.574
799.965	449.064
800.093	477.255
800.221	436.830
800.349	462.085
800.477	465.489
800.605	460.213
800.733	474.915
800.862	454.298
800.990	497.745
801.118	437.723
801.246	444.894
801.374	458.191
801.502	446.894
801.630	439.745
801.758	449.489
801.887	460.894
802.015	425.426
802.143	427.723
802.271	453.638
802.399	427.957
802.527	424.362
802.655	466.362
802.783	480.362
802.912	439.766
803.040	420.723
803.168	408.681
803.296	408.106
803.424	431.979
803.552	420.660
803.680	425.723
803.808	424.106
803.937	418.681
804.065	414.957
804.193	422.596
804.321	467.383
804.449	399.511
804.577	415.128
804.705	422.660
804.833	450.021
804.962	395.447
805.090	411.596
805.218	423.021
805.346	419.064
805.474	416.106
805.602	432.170
805.730	412.787
805.858	406.702
805.987	406.574
806.115	410.723
806.243	409.894
806.371	440.426
806.499	509.085
806.627	535.957
806.755	506.298
806.883	415.553
807.012	401.021
807.140	426.404
807.268	406.702
807.396	413.766
807.524	381.532
807.652	396.340
807.780	463.532
807.908	378.766
808.037	436.489
808.165	418.766
808.293	395.468
808.421	445.319
808.549	379.638
808.677	384.872
808.805	431.277
808.933	387.340
809.062	402.830
809.190	451.660
809.318	398.319
809.446	386.532
809.574	439.830
809.702	381.723
809.830	392.809
809.958	388.298
810.087	384.660
810.215	399.191
810.343	387.638
810.471	386.809
810.599	371.128
810.727	379.447
810.855	363.553
810.983	370.617
811.112	380.596
811.240	374.064
811.368	390.702
811.496	420.681
811.624	391.255
811.752	364.085
811.880	375.638
812.008	359.511
812.137	390.170
812.265	354.000
812.393	382.404
812.521	395.170
812.649	376.149
812.777	364.298
812.905	407.362
813.033	356.617
813.162	365.617
813.290	358.149
813.418	377.766
813.546	355.851
813.674	359.340
813.802	364.702
813.930	343.340
814.058	349.745
814.187	367.745
814.315	355.809
814.443	366.468
814.571	371.319
814.699	381.766
814.827	354.149
814.955	343.809
815.083	369.957
815.212	376.617
815.340	375.957
815.468	348.213
815.596	354.000
815.724	359.319
815.852	349.617
815.980	340.574
816.108	344.362
816.237	342.723
816.365	350.021
816.493	351.617
816.621	340.255
816.749	350.660
816.877	355.532
817.005	363.894
817.133	360.957
817.262	336.489
817.390	338.681
817.518	343.298
817.646	347.106
817.774	334.851
817.902	339.043
818.030	339.298
818.158	371.234
818.287	351.213
818.415	323.936
818.543	343.298
818.671	352.851
818.799	332.830
818.927	350.638
819.055	350.106
819.183	328.532
819.312	341.830
819.440	325.979
819.568	319.170
819.696	333.085
819.824	351.447
819.952	327.872
820.080	340.809
820.208	328.021
820.337	327.851
820.465	360.596
820.593	329.957
820.721	334.979
820.849	327.191
820.977	323.553
821.105	339.511
821.233	302.213
821.362	344.447
821.490	309.383
821.618	323.064
821.746	319.043
821.874	329.149
822.002	314.574
822.130	320.532
822.258	305.851
822.387	313.064
822.515	331.851
822.643	334.319
822.771	326.213
822.899	324.681
823.027	362.319
823.155	303.766
823.283	305.043
823.412	326.681
823.540	318.809
823.668	360.702
823.796	308.170
823.924	333.851
824.052	347.255
824.180	324.170
824.308	305.936
824.437	300.277
824.565	307.404
824.693	332.319
824.821	326.553
824.949	321.362
825.077	318.766
825.205	348.404
825.333	324.638
825.462	341.043
825.590	307.319
825.718	334.830
825.846	308.766
825.974	302.511
826.102	300.553
826.230	303.638
826.358	315.021
826.487	293.532
826.615	346.213
826.743	295.574
826.871	324.447
826.999	356.191
827.127	318.234
827.255	308.234
827.383	296.191
827.512	323.809
827.640	299.170
827.768	293.021
827.896	315.170
828.024	303.404
828.152	307.957
828.280	301.957
828.408	297.702
828.537	298.489
828.665	305.298
828.793	306.170
828.921	294.894
829.049	315.936
829.177	294.340
829.305	281.404
829.433	305.574
829.562	309.170
829.690	290.702
829.818	319.383
829.946	297.915
830.074	301.532
830.202	317.574
830.330	324.383
830.458	339.234
830.587	289.234
830.715	301.617
830.843	284.957
830.971	312.787
831.099	320.830
831.227	284.574
831.355	288.234
831.483	299.298
831.612	327.362
831.740	295.085
831.868	301.745
831.996	291.106
832.124	298.298
832.252	282.043
832.380	309.489
832.508	340.702
832.637	295.511
832.765	295.128
832.893	322.511
833.021	284.298
833.149	278.277
833.277	290.830
833.405	285.106
833.533	273.915
833.662	290.340
833.790	288.404
833.918	299.085
834.046	326.638
834.174	291.681
834.302	281.319
834.430	274.638
834.558	295.936
834.687	298.553
834.815	281.979
834.943	285.553
835.071	296.957
835.199	286.936
835.327	307.255
835.455	275.404
835.583	319.936
835.712	277.532
835.840	278.234
835.968	284.851
836.096	335.000
836.224	305.404
836.352	269.149
836.480	298.213
836.608	287.723
836.737	278.426
836.865	272.830
836.993	290.553
837.121	284.574
837.249	270.213
837.377	300.255
837.505	285.234
837.633	278.106
837.762	278.043
837.890	314.660
838.018	311.936
838.146	316.383
838.274	296.468
838.402	302.745
838.530	280.830
838.658	259.468
838.787	284.936
838.915	279.596
839.043	264.468
839.171	301.404
839.299	267.447
839.427	281.702
839.555	285.872
839.683	298.979
839.812	304.277
839.940	268.745
840.068	300.489
840.196	283.447
840.324	274.383
840.452	274.574
840.580	308.723
840.708	282.468
840.837	308.340
840.965	270.957
841.093	278.277
841.221	271.532
841.349	281.574
841.477	282.255
841.605	286.766
841.733	274.404
841.862	282.426
841.990	325.957
842.118	257.468
842.246	268.894
842.374	276.702
842.502	257.872
842.630	283.277
842.758	294.872
842.887	263.745
843.015	273.894
843.143	299.617
843.271	277.106
843.399	309.404
843.527	282.319
843.655	262.149
843.783	269.830
843.912	262.830
844.040	298.000
844.168	257.915
844.296	264.298
844.424	261.979
844.552	279.638
844.680	286.809
844.808	292.489
844.937	269.383
845.065	267.021
845.193	287.532
845.321	270.830
845.449	268.000
845.577	274.723
845.705	264.234
845.833	259.617
845.962	280.064
846.090	255.638
846.218	275.383
846.346	274.447
846.474	279.149
846.602	271.319
846.730	301.936
846.858	277.468
846.987	275.426
847.115	255.000
847.243	288.830
847.371	281.851
847.499	282.128
847.627	269.809
847.755	257.234
847.883	276.255
848.012	274.936
848.140	270.660
848.268	280.915
848.396	254.298
848.524	281.957
848.652	254.170
848.780	268.021
848.908	265.766
849.037	258.766
849.165	279.298
849.293	274.468
849.421	281.383
849.549	271.532
849.677	274.128
849.805	274.277
849.933	268.681
850.062	261.234
850.190	262.617
850.318	267.404
850.446	256.830
850.574	254.894
850.702	256.787
850.830	263.447
850.958	278.511
851.087	257.404
851.215	265.106
851.343	262.085
851.471	262.574
851.599	266.957
851.727	265.277
851.855	307.596
851.983	267.447
852.112	266.128
852.240	254.447
852.368	263.468
852.496	259.149
852.624	255.830
852.752	263.532
852.880	247.745
853.008	263.957
853.137	274.064
853.265	272.426
853.393	261.915
853.521	272.298
853.649	271.936
853.777	251.574
853.905	273.532
854.033	261.660
854.162	313.957
854.290	254.021
854.418	251.213
854.546	250.404
854.674	367.383
854.802	266.106
854.930	254.362
855.058	238.319
855.187	252.894
855.315	275.745
855.443	240.617
855.571	246.340
855.699	253.340
855.827	258.638
855.955	259.468
856.083	259.319
856.212	272.426
856.340	255.128
856.468	297.660
856.596	279.702
856.724	259.234
856.852	256.447
856.980	257.426
857.108	266.383
857.237	251.085
857.365	278.957
857.493	249.638
857.621	244.149
857.749	260.596
857.877	269.340
858.005	278.574
858.133	252.277
858.262	257.277
858.390	251.149
858.518	238.532
858.646	241.553
858.774	254.617
858.902	231.404
859.030	252.021
859.158	267.319
859.287	260.830
859.415	283.830
859.543	246.021
859.671	244.234
859.799	274.553
859.927	258.000
860.055	255.830
860.183	256.489
860.312	251.426
860.440	263.085
860.568	250.936
860.696	235.638
860.824	322.000
860.952	296.383
861.080	258.617
861.208	258.213
861.337	264.085
861.465	288.064
861.593	282.128
861.721	252.511
861.849	253.383
861.977	237.681
862.105	261.957
862.233	281.043
862.362	264.149
862.490	270.234
862.618	242.468
862.746	259.340
862.874	245.660
863.002	252.277
863.130	284.872
863.258	250.574
863.387	273.213
863.515	273.234
863.643	257.319
863.771	326.638
863.899	254.043
864.027	245.106
864.155	241.106
864.283	270.660
864.412	251.638
864.540	251.723
864.668	246.872
864.796	255.064
864.924	259.043
865.052	260.191
865.180	248.574
865.308	236.000
865.437	257.000
865.565	255.979
865.693	282.085
865.821	258.170
865.949	274.213
866.077	254.957
866.205	258.149
866.333	270.043
866.462	248.872
866.590	261.745
866.718	265.468
866.846	250.787
866.974	259.511
867.102	269.447
867.230	292.234
867.358	253.574
867.487	249.574
867.615	275.617
867.743	259.511
867.871	257.319
867.999	256.426
868.127	255.277
868.255	304.702
868.383	298.723
868.512	245.170
868.640	248.915
868.768	237.787
868.896	238.638
869.024	277.894
869.152	250.851
869.280	262.106
869.408	282.851
869.537	248.851
869.665	319.660
869.793	245.128
869.921	286.319
870.049	259.234
870.177	265.936
870.305	299.596
870.433	237.468
870.562	265.915
870.690	238.617
870.818	249.809
870.946	254.149
871.074	288.872
871.202	265.085
871.330	274.447
871.458	239.553
871.587	254.596
871.715	256.745
871.843	249.851
871.971	247.723
872.099	261.511
872.227	247.064
872.355	263.468
872.483	264.362
872.612	262.723
872.740	264.936
872.868	251.979
872.996	255.447
873.124	245.745
873.252	257.809
873.380	252.979
873.508	244.745
873.637	266.979
873.765	248.000
873.893	300.957
874.021	258.766
874.149	246.532
874.277	256.106
874.405	246.426
874.533	249.638
874.662	1150.745
874.790	259.596
874.918	299.128
875.046	278.383
875.174	267.213
875.302	242.085
875.430	289.128
875.558	269.681
875.687	269.085
875.815	247.681
875.943	248.085
876.071	262.489
876.199	281.617
876.327	291.553
876.455	254.298
876.583	273.277
876.712	251.979
876.840	265.872
876.968	297.617
877.096	252.638
877.224	241.532
877.352	306.723
877.480	245.915
877.608	260.617
877.737	268.170
877.865	255.915
877.993	276.979
878.121	234.255
878.249	244.915
878.377	252.340
878.505	253.298
878.633	253.851
878.762	257.298
878.890	245.617
879.018	315.340
879.146	259.043
879.274	239.532
879.402	275.106
879.530	264.468
879.658	240.000
879.787	249.809
879.915	255.000
880.043	287.681
880.171	239.681
880.299	278.383
880.427	265.553
880.555	257.426
880.683	283.532
880.812	247.191
880.940	285.681
881.068	246.298
881.196	247.660
881.324	263.298
881.452	247.702
881.580	275.745
881.708	275.638
881.837	274.191
881.965	266.532
882.093	271.298
882.221	251.340
882.349	281.553
882.477	278.936
882.605	264.511
882.733	250.319
882.862	296.277
882.990	268.660
883.118	261.319
883.246	261.234
883.374	256.149
883.502	257.723
883.630	247.723
883.758	253.723
883.887	266.915
884.015	247.723
884.143	249.894
884.271	266.723
884.399	254.979
884.527	257.915
884.655	232.979
884.783	264.447
884.912	274.638
885.040	251.277
885.168	319.596
885.296	255.660
885.424	267.574
885.552	274.872
885.680	267.511
885.808	250.681
885.937	277.362
886.065	273.149
886.193	249.021
886.321	297.128
886.449	251.809
886.577	303.043
886.705	256.383
886.833	248.851
886.962	252.234
887.090	260.596
887.218	260.340
887.346	278.872
887.474	290.277
887.602	272.872
887.730	269.723
887.858	286.404
887.987	258.383
888.115	300.702
888.243	270.979
888.371	266.149
888.499	254.319
888.627	282.191
888.755	271.787
888.883	259.936
889.012	257.064
889.140	258.106
889.268	279.319
889.396	275.787
889.524	268.319
889.652	253.191
889.780	253.106
889.908	285.830
890.037	252.447
890.165	258.213
890.293	283.213
890.421	313.638
890.549	272.404
890.677	267.043
890.805	253.362
890.933	286.894
891.062	265.936
891.190	257.213
891.318	272.447
891.446	270.596
891.574	252.383
891.702	262.277
891.830	254.085
891.958	293.872
892.087	309.915
892.215	271.809
892.343	272.468
892.471	277.085
892.599	253.915
892.727	283.894
892.855	261.447
892.983	254.894
893.112	271.085
893.240	258.511
893.368	296.085
893.496	267.043
893.624	276.255
893.752	325.596
893.880	305.723
894.008	249.468
894.137	276.213
894.265	270.745
894.393	266.000
894.521	267.851
894.649	290.255
894.777	263.149
894.905	246.617
895.033	295.043
895.162	262.894
895.290	300.489
895.418	282.064
895.546	274.936
895.674	346.617
895.802	260.021
895.930	282.383
896.058	246.213
896.187	263.170
896.315	258.596
896.443	260.511
896.571	271.106
896.699	271.809
896.827	272.915
896.955	271.936
897.083	253.830
897.212	300.830
897.340	269.213
897.468	244.766
897.596	263.000
897.724	305.468
897.852	270.021
897.980	271.532
898.108	266.319
898.237	263.617
898.365	253.362
898.493	267.489
898.621	264.660
898.749	257.702
898.877	276.191
899.005	245.574
899.133	255.894
899.262	275.319
899.390	298.936
899.518	265.213
899.646	262.362
899.774	291.043
899.902	340.702
900.030	279.830
900.158	269.915
900.287	272.383
900.415	247.085
900.543	273.000
900.671	264.128
900.799	294.298
900.927	254.085
901.055	259.617
901.183	272.298
901.312	283.319
901.440	280.298
901.568	277.532
901.696	271.340
901.824	282.277
901.952	273.596
902.080	376.809
902.208	299.894
902.337	255.766
902.465	274.872
902.593	267.277
902.721	277.489
902.849	274.894
902.977	275.489
903.105	259.574
903.233	279.745
903.362	267.766
903.490	281.936
903.618	251.362
903.746	276.532
903.874	252.894
904.002	276.894
904.130	270.298
904.258	285.106
904.387	265.021
904.515	283.319
904.643	252.936
904.771	252.787
904.899	276.170
905.027	288.468
905.155	276.638
905.283	263.936
905.412	293.064
905.540	268.085
905.668	262.766
905.796	259.404
905.924	260.681
906.052	265.277
906.180	286.915
906.308	275.064
906.437	289.234
906.565	268.851
906.693	271.617
906.821	250.106
906.949	261.149
907.077	275.787
907.205	266.681
907.333	267.915
907.462	266.936
907.590	257.617
907.718	283.702
907.846	309.489
907.974	256.021
908.102	271.085
908.230	288.979
908.358	299.702
908.487	267.468
908.615	268.851
908.743	273.234
908.871	327.255
908.999	268.638
909.127	295.170
909.255	249.660
909.383	252.702
909.512	298.915
909.640	268.915
909.768	264.404
909.896	311.702
910.024	286.149
910.152	274.149
910.280	313.660
910.408	266.702
910.537	264.681
910.665	300.404
910.793	272.447
910.921	283.745
911.049	251.745
911.177	250.298
911.305	283.830
911.433	270.638
911.562	264.511
911.690	273.617
911.818	318.766
911.946	262.532
912.074	283.702
912.202	303.872
912.330	261.383
912.458	265.894
912.587	287.021
912.715	295.851
912.843	294.723
912.971	286.830
913.099	300.277
913.227	284.936
913.355	273.596
913.483	290.021
913.612	285.723
913.740	406.255
913.868	282.468
