0pol_90_70_at_750.00nm_cut_at_984.50Y_01.dat
24.04.2023
10:51:24
cut middle at Y: 984.50
top cursor: 1008 down cursor: 961 mean of: 47 lines , 2560 datapoints
wavelength(nm)	intensity[arb. units]
585.996	22711.660
586.124	22276.936
586.252	22234.574
586.380	22332.766
586.508	22502.936
586.637	22680.553
586.765	22776.085
586.893	22844.298
587.021	22926.660
587.149	23063.043
587.277	23110.702
587.405	23256.617
587.533	23197.957
587.662	23409.681
587.790	23416.234
587.918	23492.681
588.046	23566.617
588.174	23620.596
588.302	23766.489
588.430	23719.362
588.558	23761.532
588.687	23968.617
588.815	23914.255
588.943	24010.660
589.071	24013.191
589.199	24094.574
589.327	24211.574
589.455	24158.957
589.583	24389.596
589.712	24390.702
589.840	24438.894
589.968	24505.660
590.096	24592.745
590.224	24739.106
590.352	24694.255
590.480	24891.340
590.608	24848.809
590.737	25046.149
590.865	25088.298
590.993	25093.489
591.121	25233.298
591.249	25257.213
591.377	25294.319
591.505	25416.000
591.633	25540.298
591.762	25530.383
591.890	25775.574
592.018	25746.553
592.146	25829.255
592.274	25927.000
592.402	25976.128
592.530	26067.830
592.658	26370.830
592.787	26227.426
592.915	26487.085
593.043	26454.702
593.171	26549.149
593.299	26732.340
593.427	26799.489
593.555	26979.851
593.683	27047.468
593.812	27135.702
593.940	27183.681
594.068	27410.128
594.196	27611.277
594.324	27592.511
594.452	27776.000
594.580	27861.766
594.708	27926.957
594.837	27974.043
594.965	28188.660
595.093	28380.234
595.221	28287.745
595.349	28633.660
595.477	28662.681
595.605	28712.404
595.733	28696.660
595.862	29015.617
595.990	28963.702
596.118	29082.872
596.246	29333.532
596.374	29257.511
596.502	29440.085
596.630	29410.362
596.758	29549.234
596.887	29568.574
597.015	29688.809
597.143	29783.957
597.271	29900.404
597.399	29912.468
597.527	29926.787
597.655	30049.957
597.783	29986.191
597.912	30067.128
598.040	30210.787
598.168	30188.021
598.296	30336.319
598.424	30228.532
598.552	30333.723
598.680	30369.319
598.808	30483.043
598.937	30467.404
599.065	30404.298
599.193	30568.596
599.321	30624.383
599.449	30679.213
599.577	30746.191
599.705	30782.660
599.833	30850.872
599.962	30964.830
600.090	31037.383
600.218	31138.383
600.346	31134.723
600.474	31262.234
600.602	31379.957
600.730	31452.574
600.858	31576.191
600.987	31712.851
601.115	31743.213
601.243	31882.830
601.371	31940.872
601.499	32115.170
601.627	32290.298
601.755	32369.809
601.883	32445.511
602.012	32709.936
602.140	32723.511
602.268	32944.000
602.396	32982.064
602.524	33283.638
602.652	33314.468
602.780	33483.383
602.908	33628.957
603.037	33789.638
603.165	33820.085
603.293	33944.596
603.421	34128.255
603.549	34205.085
603.677	34406.404
603.805	34534.638
603.933	34686.894
604.062	34813.617
604.190	34940.638
604.318	35036.872
604.446	35234.383
604.574	35302.957
604.702	35466.106
604.830	35645.191
604.958	35721.723
605.087	35841.106
605.215	35929.170
605.343	36045.319
605.471	36113.106
605.599	36233.064
605.727	36279.404
605.855	36427.149
605.983	36474.383
606.112	36612.872
606.240	36678.660
606.368	36643.447
606.496	36904.532
606.624	36858.787
606.752	36941.660
606.880	37113.596
607.008	37252.830
607.137	37247.553
607.265	37046.340
607.393	37156.021
607.521	37328.851
607.649	37277.468
607.777	37226.383
607.905	37326.745
608.033	37287.383
608.162	37363.809
608.290	37371.979
608.418	37337.957
608.546	37373.340
608.674	37430.106
608.802	37428.638
608.930	37436.681
609.058	37398.021
609.187	37523.277
609.315	37549.043
609.443	37538.234
609.571	37503.830
609.699	37477.000
609.827	37615.574
609.955	37523.085
610.083	37562.298
610.212	37505.085
610.340	37569.532
610.468	37677.809
610.596	37576.043
610.724	37671.043
610.852	37515.064
610.980	37587.830
611.108	37637.830
611.237	37584.532
611.365	37718.851
611.493	37725.915
611.621	37820.021
611.749	37872.915
611.877	37917.191
612.005	37889.319
612.133	37987.915
612.262	38020.149
612.390	38046.979
612.518	38205.106
612.646	38323.489
612.774	38157.915
612.902	38361.277
613.030	38355.809
613.158	38515.574
613.287	38548.298
613.415	38558.149
613.543	38477.340
613.671	38553.511
613.799	38749.234
613.927	38564.362
614.055	38612.723
614.183	38859.872
614.312	38771.447
614.440	38828.681
614.568	38813.468
614.696	38918.213
614.824	39220.617
614.952	39066.702
615.080	39140.191
615.208	39181.234
615.337	39104.085
615.465	39155.745
615.593	39367.681
615.721	39400.064
615.849	39490.447
615.977	39529.723
616.105	39534.979
616.233	39494.277
616.362	39565.000
616.490	39531.745
616.618	39632.936
616.746	39715.489
616.874	39622.149
617.002	39600.255
617.130	39598.787
617.258	39829.979
617.387	39786.340
617.515	39736.723
617.643	39774.511
617.771	39740.681
617.899	39793.532
618.027	39720.681
618.155	39766.021
618.283	39753.617
618.412	39690.234
618.540	39791.085
618.668	39659.277
618.796	39690.468
618.924	39758.702
619.052	39598.617
619.180	39646.000
619.308	39602.340
619.437	39709.340
619.565	39495.511
619.693	39576.638
619.821	39429.298
619.949	39356.085
620.077	39438.766
620.205	39515.872
620.333	39465.851
620.462	39477.319
620.590	39334.511
620.718	39294.128
620.846	39312.936
620.974	39277.234
621.102	39143.596
621.230	39122.553
621.358	39258.787
621.487	39105.617
621.615	39006.745
621.743	39038.681
621.871	38914.553
621.999	38866.234
622.127	38800.383
622.255	38747.574
622.383	38686.489
622.512	38526.511
622.640	38778.085
622.768	38498.234
622.896	38479.043
623.024	38310.298
623.152	38416.574
623.280	38233.851
623.408	38101.596
623.537	38124.468
623.665	38073.447
623.793	37936.830
623.921	37852.894
624.049	37857.149
624.177	37657.660
624.305	37726.809
624.433	37613.064
624.562	37630.532
624.690	37472.468
624.818	37529.255
624.946	37521.638
625.074	37339.851
625.202	37170.064
625.330	37130.213
625.458	37080.234
625.587	37039.043
625.715	36919.766
625.843	36954.787
625.971	36818.447
626.099	36721.617
626.227	36703.468
626.355	36509.170
626.483	36534.404
626.612	36370.191
626.740	36406.021
626.868	36447.681
626.996	36268.021
627.124	36199.000
627.252	36159.447
627.380	36099.702
627.508	36059.766
627.637	35950.128
627.765	35866.766
627.893	35897.702
628.021	35907.085
628.149	35991.298
628.277	36102.574
628.405	35971.511
628.533	35542.319
628.662	35593.021
628.790	35493.383
628.918	35452.532
629.046	35379.383
629.174	35501.383
629.302	35684.298
629.430	35443.894
629.558	35156.851
629.687	35127.957
629.815	35046.383
629.943	35094.021
630.071	35043.213
630.199	35054.915
630.327	34929.234
630.455	34954.000
630.583	34905.766
630.712	34786.043
630.840	34834.681
630.968	34670.830
631.096	34581.362
631.224	34566.979
631.352	34363.319
631.480	34363.872
631.608	34396.043
631.737	34306.085
631.865	34388.021
631.993	34153.936
632.121	34134.383
632.249	34107.255
632.377	33924.064
632.505	33828.915
632.633	33597.957
632.762	33653.277
632.890	33577.383
633.018	33371.553
633.146	33480.638
633.274	33229.574
633.402	33158.915
633.530	33013.809
633.658	32912.447
633.787	32750.766
633.915	32770.298
634.043	32530.298
634.171	32498.128
634.299	32323.830
634.427	32252.957
634.555	32176.362
634.683	31958.021
634.812	31885.064
634.940	31662.234
635.068	31657.128
635.196	31485.170
635.324	31287.043
635.452	31251.489
635.580	31125.957
635.708	30977.915
635.837	30804.809
635.965	30643.936
636.093	30480.638
636.221	30466.426
636.349	30315.511
636.477	30166.277
636.605	30085.128
636.733	29831.383
636.862	29714.149
636.990	29574.617
637.118	29444.745
637.246	29341.957
637.374	29232.468
637.502	29125.362
637.630	28900.383
637.758	28836.043
637.887	28649.596
638.015	28556.723
638.143	28423.830
638.271	28310.234
638.399	28248.745
638.527	28044.553
638.655	27989.766
638.783	28032.894
638.912	27838.362
639.040	27564.298
639.168	27582.553
639.296	27414.596
639.424	27389.830
639.552	27185.106
639.680	27270.489
639.808	27091.532
639.937	26883.021
640.065	26865.894
640.193	26759.489
640.321	26629.723
640.449	26606.447
640.577	26544.681
640.705	26402.064
640.833	26447.106
640.962	26215.362
641.090	26142.830
641.218	26060.234
641.346	25970.298
641.474	25960.681
641.602	25799.319
641.730	25796.298
641.858	25732.511
641.987	25708.213
642.115	25493.362
642.243	25438.319
642.371	25429.894
642.499	25313.511
642.627	25325.553
642.755	25204.191
642.883	25210.298
643.012	25134.596
643.140	25010.234
643.268	24887.468
643.396	24828.745
643.524	24861.234
643.652	24746.766
643.780	24513.383
643.908	24596.426
644.037	24489.915
644.165	24359.000
644.293	24249.085
644.421	24215.702
644.549	24169.362
644.677	24020.936
644.805	23987.787
644.933	23827.085
645.062	23742.000
645.190	23615.574
645.318	23644.319
645.446	23449.894
645.574	23455.128
645.702	23389.745
645.830	23423.340
645.958	23102.170
646.087	23187.489
646.215	22902.277
646.343	23012.213
646.471	22819.489
646.599	22705.723
646.727	22622.809
646.855	22474.915
646.983	22440.277
647.112	22316.872
647.240	22347.638
647.368	22127.000
647.496	21980.000
647.624	21852.213
647.752	21816.936
647.880	21696.660
648.008	21618.277
648.137	21436.085
648.265	21347.617
648.393	21267.787
648.521	21237.170
648.649	21080.489
648.777	21012.660
648.905	20874.128
649.033	20781.511
649.162	20658.915
649.290	20591.340
649.418	20374.979
649.546	20408.064
649.674	20287.638
649.802	20099.830
649.930	20161.340
650.058	20039.638
650.187	19876.596
650.315	19789.106
650.443	19745.021
650.571	19561.702
650.699	19578.894
650.827	19464.447
650.955	19356.362
651.083	19248.872
651.212	19217.723
651.340	19117.617
651.468	19010.319
651.596	18867.319
651.724	18788.170
651.852	18755.872
651.980	18584.979
652.108	18609.957
652.237	18483.638
652.365	18435.362
652.493	18333.213
652.621	18183.596
652.749	18143.723
652.877	18036.574
653.005	17981.617
653.133	17945.000
653.262	17873.489
653.390	17739.617
653.518	17720.447
653.646	17600.638
653.774	17649.277
653.902	17466.851
654.030	17339.702
654.158	17302.511
654.287	17219.872
654.415	17135.447
654.543	17125.489
654.671	16985.957
654.799	16954.702
654.927	16846.660
655.055	16750.617
655.183	16699.426
655.312	16583.617
655.440	16563.277
655.568	16432.000
655.696	16430.149
655.824	16454.468
655.952	16248.000
656.080	16171.404
656.208	16207.000
656.337	16015.085
656.465	15953.106
656.593	15865.468
656.721	15721.681
656.849	15727.894
656.977	15655.809
657.105	15551.149
657.233	15501.021
657.362	15452.191
657.490	15271.319
657.618	15281.319
657.746	15189.957
657.874	15127.787
658.002	15049.574
658.130	14987.957
658.258	14875.830
658.387	14872.085
658.515	14749.489
658.643	14716.404
658.771	14581.106
658.899	14571.106
659.027	14488.447
659.155	14464.128
659.283	14523.660
659.412	14298.617
659.540	14326.447
659.668	14162.809
659.796	14111.936
659.924	14095.851
660.052	13973.702
660.180	13921.064
660.308	13799.915
660.437	13785.553
660.565	13711.851
660.693	13666.957
660.821	13578.021
660.949	13555.936
661.077	13490.936
661.205	13431.404
661.333	13389.638
661.462	13374.979
661.590	13291.447
661.718	13382.787
661.846	13175.596
661.974	13261.021
662.102	13058.085
662.230	12980.170
662.358	12908.319
662.487	12930.787
662.615	12786.298
662.743	12800.404
662.871	12754.489
662.999	12665.128
663.127	12585.298
663.255	12719.149
663.383	12622.553
663.512	12530.511
663.640	12556.872
663.768	12475.404
663.896	12422.766
664.024	12438.532
664.152	12328.957
664.280	12325.426
664.408	12305.553
664.537	12276.638
664.665	12218.319
664.793	12107.191
664.921	12045.851
665.049	11977.957
665.177	12005.809
665.305	11965.957
665.433	11900.149
665.562	11843.362
665.690	11840.340
665.818	11918.745
665.946	11811.213
666.074	11655.617
666.202	11666.596
666.330	11682.681
666.458	11608.489
666.587	11552.574
666.715	11533.298
666.843	11522.830
666.971	11482.170
667.099	11438.596
667.227	11403.298
667.355	11326.574
667.483	11299.851
667.612	11278.660
667.740	11247.809
667.868	11245.128
667.996	11213.298
668.124	11106.638
668.252	11123.404
668.380	11065.617
668.508	11029.404
668.637	10983.170
668.765	10934.468
668.893	10921.255
669.021	10826.766
669.149	10828.447
669.277	10832.468
669.405	10719.809
669.533	10680.362
669.662	10906.766
669.790	10667.723
669.918	10639.787
670.046	10538.021
670.174	10586.362
670.302	10555.681
670.430	10467.447
670.558	10441.468
670.687	10262.872
670.815	10452.149
670.943	10256.000
671.071	10198.404
671.199	10212.979
671.327	10125.702
671.455	10108.766
671.583	10041.830
671.712	10123.787
671.840	9995.660
671.968	9867.957
672.096	9800.936
672.224	9779.255
672.352	9904.128
672.480	9728.894
672.608	9617.638
672.737	9577.979
672.865	9688.426
672.993	9533.149
673.121	9456.511
673.249	9390.787
673.377	9404.617
673.505	9300.872
673.633	9280.723
673.762	9189.234
673.890	9147.766
674.018	9388.830
674.146	9065.404
674.274	9036.511
674.402	9174.043
674.530	9004.362
674.658	8948.213
674.787	8870.191
674.915	8791.340
675.043	8845.766
675.171	8757.745
675.299	8683.638
675.427	8674.468
675.555	8551.426
675.683	8573.723
675.812	8560.723
675.940	8508.234
676.068	8466.128
676.196	8349.213
676.324	8377.660
676.452	8284.787
676.580	8249.149
676.708	8255.064
676.837	8241.596
676.965	8141.532
677.093	8083.617
677.221	8030.489
677.349	8091.340
677.477	8039.638
677.605	7929.915
677.733	7978.511
677.862	7836.702
677.990	7777.638
678.118	7790.915
678.246	7789.000
678.374	7751.064
678.502	7631.851
678.630	7607.085
678.758	7620.298
678.887	7574.170
679.015	7535.447
679.143	7509.085
679.271	7458.574
679.399	7520.149
679.527	7429.745
679.655	7372.872
679.783	7376.340
679.912	7394.745
680.040	7329.085
680.168	7299.340
680.296	7312.979
680.424	7250.830
680.552	7212.000
680.680	7288.660
680.808	7162.681
680.937	7135.447
681.065	7063.021
681.193	7105.532
681.321	7097.106
681.449	7081.404
681.577	7032.532
681.705	7001.191
681.833	6958.489
681.962	6877.128
682.090	7072.851
682.218	6877.043
682.346	6859.447
682.474	6861.915
682.602	6792.766
682.730	6827.638
682.858	6750.106
682.987	6777.404
683.115	6769.489
683.243	6687.340
683.371	6655.809
683.499	6676.340
683.627	6698.787
683.755	6656.128
683.883	6752.404
684.012	6564.957
684.140	6524.255
684.268	6457.213
684.396	6503.085
684.524	6518.362
684.652	6571.894
684.780	6492.936
684.908	6487.489
685.037	6396.957
685.165	6351.149
685.293	6329.234
685.421	6409.745
685.549	6280.957
685.677	6269.766
685.805	6397.489
685.933	6267.404
686.062	6203.979
686.190	6143.404
686.318	6213.681
686.446	6114.979
686.574	6146.894
686.702	6212.043
686.830	6091.277
686.958	6062.213
687.087	6042.021
687.215	6026.787
687.343	5954.447
687.471	5963.702
687.599	5942.149
687.727	6114.085
687.855	5904.809
687.983	5935.511
688.112	5986.681
688.240	5842.617
688.368	5828.383
688.496	5823.213
688.624	5858.340
688.752	5715.766
688.880	5748.596
689.008	5723.000
689.137	5686.574
689.265	5634.404
689.393	5622.128
689.521	5557.106
689.649	5569.298
689.777	5545.319
689.905	5547.511
690.033	5510.936
690.162	5474.766
690.290	5496.894
690.418	5393.468
690.546	5547.064
690.674	5474.894
690.802	5311.787
690.930	5417.234
691.058	5369.000
691.187	5301.149
691.315	5271.128
691.443	5331.511
691.571	5230.213
691.699	5256.915
691.827	5278.404
691.955	5207.149
692.083	5173.489
692.212	5291.745
692.340	5149.936
692.468	5112.872
692.596	5100.660
692.724	5225.894
692.852	5027.149
692.980	5108.894
693.108	5003.979
693.237	4969.426
693.365	4966.298
693.493	4900.511
693.621	4909.787
693.749	4897.915
693.877	4854.681
694.005	4936.596
694.133	4823.915
694.262	4818.894
694.390	4731.298
694.518	4762.638
694.646	4747.617
694.774	4765.574
694.902	4819.702
695.030	4763.319
695.158	4629.255
695.287	4628.362
695.415	4635.064
695.543	4581.532
695.671	4715.000
695.799	4620.894
695.927	4579.872
696.055	4535.660
696.183	4540.426
696.312	4495.851
696.440	4630.766
696.568	4585.043
696.696	4505.426
696.824	4384.787
696.952	4443.745
697.080	4471.936
697.208	4355.426
697.337	4448.532
697.465	4408.447
697.593	4306.617
697.721	4344.362
697.849	4347.660
697.977	4291.766
698.105	4334.234
698.233	4247.106
698.362	4269.617
698.490	4251.170
698.618	4207.128
698.746	4317.340
698.874	4209.872
699.002	4380.851
699.130	4176.957
699.258	4171.915
699.387	4073.447
699.515	4138.851
699.643	4094.766
699.771	4114.574
699.899	4076.404
700.027	4070.213
700.155	4020.553
700.283	3981.872
700.412	4032.404
700.540	3995.170
700.668	4000.957
700.796	3932.979
700.924	3911.681
701.052	3908.383
701.180	4006.915
701.308	3879.426
701.437	3806.043
701.565	3790.894
701.693	3782.106
701.821	3774.213
701.949	3804.787
702.077	3801.553
702.205	3711.064
702.333	3723.447
702.462	3689.851
702.590	3669.383
702.718	3640.553
702.846	3638.511
702.974	3625.872
703.102	3629.383
703.230	3670.383
703.358	3598.064
703.487	3547.596
703.615	3703.064
703.743	3501.489
703.871	3498.574
703.999	3502.511
704.127	3595.426
704.255	3382.851
704.383	3568.277
704.512	3400.213
704.640	3428.106
704.768	3326.362
704.896	3401.277
705.024	3299.213
705.152	3433.957
705.280	3293.532
705.408	3267.447
705.537	3244.149
705.665	3197.596
705.793	3204.191
705.921	3158.957
706.049	3203.894
706.177	3131.298
706.305	3139.638
706.433	3226.894
706.562	3114.383
706.690	3056.787
706.818	3055.957
706.946	3289.681
707.074	3071.447
707.202	3005.064
707.330	3055.638
707.458	3012.936
707.587	2940.043
707.715	2971.255
707.843	3013.064
707.971	2982.660
708.099	3001.660
708.227	2923.170
708.355	2909.745
708.483	2855.957
708.612	2843.532
708.740	2883.085
708.868	2960.979
708.996	2829.979
709.124	2888.255
709.252	2814.043
709.380	2763.149
709.508	2814.979
709.637	2741.191
709.765	2758.149
709.893	2779.489
710.021	2784.149
710.149	2707.426
710.277	2769.766
710.405	2671.298
710.533	2665.447
710.662	2643.340
710.790	2638.702
710.918	2658.681
711.046	2646.681
711.174	2601.234
711.302	2630.872
711.430	2720.830
711.558	2586.851
711.687	2576.383
711.815	2603.149
711.943	2563.234
712.071	2586.638
712.199	2609.766
712.327	2598.064
712.455	2502.149
712.583	2573.064
712.712	2540.957
712.840	2522.383
712.968	2534.468
713.096	2569.532
713.224	2517.979
713.352	2534.255
713.480	2509.021
713.608	2494.255
713.737	2526.723
713.865	2502.255
713.993	2547.553
714.121	2509.213
714.249	2525.638
714.377	2535.447
714.505	2516.766
714.633	2539.894
714.762	2493.468
714.890	2485.936
715.018	2518.383
715.146	2514.298
715.274	2486.766
715.402	2494.447
715.530	2471.723
715.658	2442.128
715.787	2464.766
715.915	2469.745
716.043	2447.468
716.171	2449.553
716.299	2468.404
716.427	2435.277
716.555	2428.660
716.683	2389.468
716.812	2395.851
716.940	2420.617
717.068	2357.489
717.196	2359.766
717.324	2393.426
717.452	2358.106
717.580	2328.745
717.708	2357.596
717.837	2359.128
717.965	2335.979
718.093	2295.298
718.221	2269.723
718.349	2299.979
718.477	2252.277
718.605	2261.957
718.733	2276.404
718.862	2265.021
718.990	2241.766
719.118	2263.830
719.246	2227.319
719.374	2246.660
719.502	2222.851
719.630	2279.106
719.758	2210.787
719.887	2167.404
720.015	2196.489
720.143	2155.085
720.271	2149.596
720.399	2180.553
720.527	2131.085
720.655	2129.021
720.783	2129.936
720.912	2098.766
721.040	2130.702
721.168	2079.936
721.296	2117.404
721.424	2063.085
721.552	2055.021
721.680	2045.745
721.808	2069.404
721.937	2042.255
722.065	2034.511
722.193	2014.553
722.321	2029.745
722.449	2022.128
722.577	2005.383
722.705	1988.532
722.833	1964.936
722.962	1984.340
723.090	1956.043
723.218	1970.021
723.346	1966.638
723.474	1937.766
723.602	1971.000
723.730	1933.447
723.858	1936.170
723.987	1911.511
724.115	1867.574
724.243	1891.702
724.371	1877.872
724.499	1892.021
724.627	1850.957
724.755	1844.766
724.883	1861.191
725.012	1857.191
725.140	1824.043
725.268	1803.000
725.396	1809.723
725.524	1800.191
725.652	1797.106
725.780	1787.106
725.908	1768.553
726.037	1755.021
726.165	1757.511
726.293	1706.617
726.421	1726.106
726.549	1709.191
726.677	1719.085
726.805	1699.681
726.933	1697.447
727.062	1678.234
727.190	1704.872
727.318	1686.787
727.446	1682.021
727.574	1678.489
727.702	1667.170
727.830	1639.128
727.958	1681.064
728.087	1661.362
728.215	1637.723
728.343	1623.574
728.471	1620.170
728.599	1620.681
728.727	1607.745
728.855	1613.213
728.983	1605.298
729.112	1581.383
729.240	1585.234
729.368	1586.383
729.496	1583.255
729.624	1569.234
729.752	1573.383
729.880	1571.872
730.008	1562.298
730.137	1574.149
730.265	1567.511
730.393	1514.362
730.521	1533.723
730.649	1511.511
730.777	1554.638
730.905	1483.915
731.033	1500.489
731.162	1567.532
731.290	1608.787
731.418	1561.043
731.546	1597.702
731.674	1464.809
731.802	1484.255
731.930	1474.319
732.058	1444.702
732.187	1482.787
732.315	1418.936
732.443	1441.638
732.571	1433.766
732.699	1433.064
732.827	1461.830
732.955	1409.957
733.083	1413.043
733.212	1413.745
733.340	1405.809
733.468	1407.532
733.596	1385.617
733.724	1363.362
733.852	1399.915
733.980	1373.915
734.108	1388.830
734.237	1416.021
734.365	1381.426
734.493	1386.872
734.621	1342.021
734.749	1374.234
734.877	1360.617
735.005	1356.106
735.133	1341.319
735.262	1362.830
735.390	1318.851
735.518	1329.638
735.646	1310.021
735.774	1325.383
735.902	1339.638
736.030	1300.234
736.158	1349.915
736.287	1295.872
736.415	1335.681
736.543	1270.574
736.671	1269.830
736.799	1277.404
736.927	1351.000
737.055	1282.681
737.183	1274.979
737.312	1262.383
737.440	1296.362
737.568	1323.426
737.696	1235.191
737.824	1298.872
737.952	1241.362
738.080	1227.277
738.208	1283.851
738.337	1231.681
738.465	1312.362
738.593	1214.872
738.721	1198.277
738.849	1214.936
738.977	1218.809
739.105	1203.872
739.233	1220.340
739.362	1197.915
739.490	1170.872
739.618	1160.383
739.746	1173.872
739.874	1177.085
740.002	1153.277
740.130	1154.702
740.258	1157.809
740.387	1137.128
740.515	1138.255
740.643	1127.830
740.771	1182.489
740.899	1114.362
741.027	1129.872
741.155	1164.702
741.283	1091.255
741.412	1112.340
741.540	1122.872
741.668	1082.149
741.796	1092.830
741.924	1160.681
742.052	1090.979
742.180	1078.872
742.308	1093.787
742.437	1081.809
742.565	1119.872
742.693	1100.000
742.821	1048.468
742.949	1122.149
743.077	1068.149
743.205	1067.298
743.333	1069.255
743.462	1062.511
743.590	1085.723
743.718	1050.809
743.846	1062.277
743.974	1055.085
744.102	1045.234
744.230	1055.191
744.358	1029.426
744.487	1011.426
744.615	1031.149
744.743	1024.064
744.871	1014.532
744.999	1049.638
745.127	991.745
745.255	987.787
745.383	1023.702
745.512	999.383
745.640	978.298
745.768	1007.383
745.896	987.277
746.024	990.957
746.152	961.426
746.280	969.787
746.408	955.638
746.537	967.596
746.665	974.149
746.793	974.830
746.921	936.489
747.049	937.255
747.177	975.021
747.305	978.000
747.433	1005.596
747.562	926.745
747.690	929.128
747.818	948.468
747.946	917.872
748.074	1024.511
748.202	960.064
748.330	922.489
748.458	936.915
748.587	895.681
748.715	892.915
748.843	906.000
748.971	902.702
749.099	896.723
749.227	928.766
749.355	891.340
749.483	882.830
749.612	888.021
749.740	864.787
749.868	869.106
749.996	870.021
750.124	857.043
750.252	877.404
750.380	871.255
750.508	852.532
750.637	849.043
750.765	889.872
750.893	852.021
751.021	881.000
751.149	862.681
751.277	861.723
751.405	886.043
751.533	904.511
751.662	817.213
751.790	855.426
751.918	831.936
752.046	838.404
752.174	824.851
752.302	866.851
752.430	827.128
752.558	804.936
752.687	816.191
752.815	799.574
752.943	800.468
753.071	782.532
753.199	791.830
753.327	846.234
753.455	796.277
753.583	771.277
753.712	788.681
753.840	768.064
753.968	769.787
754.096	787.277
754.224	757.319
754.352	763.319
754.480	756.851
754.608	765.809
754.737	772.936
754.865	794.489
754.993	773.085
755.121	745.213
755.249	816.000
755.377	765.532
755.505	733.298
755.633	777.596
755.762	738.617
755.890	819.128
756.018	803.043
756.146	744.319
756.274	736.277
756.402	728.021
756.530	729.149
756.658	742.000
756.787	742.681
756.915	704.574
757.043	743.489
757.171	723.362
757.299	711.319
757.427	695.404
757.555	711.681
757.683	749.979
757.812	677.660
757.940	703.660
758.068	683.128
758.196	687.298
758.324	677.426
758.452	779.787
758.580	676.213
758.708	695.745
758.837	671.447
758.965	767.319
759.093	674.340
759.221	652.340
759.349	674.213
759.477	653.489
759.605	651.574
759.733	648.489
759.862	656.766
759.990	646.553
760.118	648.213
760.246	638.043
760.374	653.681
760.502	650.681
760.630	650.298
760.758	639.191
760.887	611.915
761.015	628.723
761.143	622.128
761.271	632.468
761.399	604.319
761.527	614.702
761.655	613.149
761.783	614.426
761.912	601.787
762.040	596.043
762.168	640.617
762.296	605.596
762.424	591.426
762.552	603.043
762.680	668.191
762.808	580.447
762.937	608.957
763.065	633.170
763.193	645.787
763.321	605.255
763.449	573.191
763.577	581.043
763.705	587.617
763.833	652.723
763.962	577.979
764.090	570.319
764.218	591.277
764.346	580.872
764.474	552.936
764.602	564.936
764.730	559.596
764.858	592.702
764.987	559.149
765.115	618.532
765.243	554.043
765.371	550.872
765.499	520.319
765.627	537.255
765.755	534.064
765.883	562.021
766.012	552.255
766.140	530.319
766.268	539.021
766.396	520.213
766.524	533.745
766.652	516.936
766.780	527.851
766.908	540.128
767.037	540.660
767.165	533.979
767.293	587.234
767.421	509.426
767.549	522.319
767.677	526.766
767.805	517.255
767.933	516.106
768.062	530.723
768.190	515.404
768.318	487.787
768.446	523.617
768.574	552.255
768.702	523.085
768.830	501.170
768.958	501.319
769.087	488.000
769.215	494.064
769.343	490.085
769.471	483.149
769.599	521.021
769.727	516.809
769.855	487.809
769.983	489.404
770.112	475.872
770.240	472.553
770.368	476.915
770.496	464.213
770.624	464.447
770.752	492.702
770.880	509.064
771.008	481.447
771.137	465.936
771.265	514.617
771.393	495.787
771.521	476.362
771.649	463.277
771.777	467.298
771.905	464.660
772.033	478.915
772.162	476.766
772.290	455.851
772.418	517.702
772.546	476.766
772.674	461.596
772.802	473.894
772.930	501.660
773.058	443.660
773.187	473.596
773.315	460.149
773.443	465.255
773.571	452.745
773.699	452.638
773.827	439.085
773.955	487.574
774.083	477.638
774.212	443.404
774.340	475.362
774.468	438.809
774.596	443.319
774.724	443.021
774.852	451.851
774.980	447.149
775.108	435.064
775.237	440.085
775.365	443.447
775.493	438.702
775.621	437.574
775.749	444.191
775.877	439.979
776.005	440.596
776.133	461.766
776.262	448.383
776.390	420.426
776.518	472.809
776.646	433.766
776.774	438.915
776.902	428.128
777.030	424.447
777.158	436.787
777.287	437.213
777.415	415.617
777.543	415.617
777.671	412.766
777.799	420.106
777.927	424.979
778.055	436.787
778.183	414.340
778.312	396.149
778.440	412.213
778.568	418.702
778.696	413.255
778.824	428.489
778.952	414.851
779.080	406.213
779.208	436.383
779.337	429.681
779.465	415.277
779.593	407.489
779.721	431.277
779.849	408.809
779.977	393.362
780.105	388.340
780.233	415.787
780.362	431.830
780.490	432.149
780.618	403.702
780.746	403.830
780.874	385.511
781.002	398.809
781.130	379.170
781.258	378.766
781.387	399.404
781.515	415.426
781.643	390.574
781.771	434.702
781.899	391.404
782.027	430.128
782.155	401.702
782.283	396.362
782.412	384.213
782.540	390.128
782.668	407.745
782.796	368.340
782.924	409.340
783.052	370.489
783.180	411.128
783.308	375.553
783.437	381.745
783.565	400.213
783.693	388.149
783.821	379.681
783.949	366.660
784.077	397.660
784.205	379.149
784.333	422.702
784.462	362.298
784.590	388.000
784.718	387.340
784.846	363.213
784.974	395.936
785.102	414.638
785.230	373.936
785.358	422.617
785.487	373.553
785.615	381.489
785.743	370.447
785.871	370.574
785.999	365.915
786.127	350.638
786.255	375.596
786.383	387.064
786.512	394.957
786.640	373.574
786.768	378.255
786.896	361.064
787.024	360.894
787.152	362.957
787.280	364.511
787.408	349.851
787.537	379.915
787.665	359.787
787.793	391.234
787.921	376.596
788.049	371.149
788.177	343.660
788.305	351.404
788.433	384.447
788.562	344.191
788.690	347.660
788.818	361.936
788.946	360.851
789.074	343.894
789.202	370.128
789.330	363.979
789.458	354.617
789.587	398.319
789.715	355.298
789.843	355.085
789.971	347.128
790.099	351.298
790.227	349.511
790.355	336.936
790.483	373.255
790.612	347.383
790.740	350.191
790.868	368.277
790.996	354.617
791.124	347.553
791.252	340.787
791.380	361.404
791.508	354.830
791.637	346.170
791.765	331.617
791.893	334.723
792.021	338.830
792.149	337.043
792.277	350.723
792.405	329.489
792.533	353.043
792.662	314.872
792.790	331.894
792.918	353.298
793.046	332.255
793.174	361.234
793.302	338.830
793.430	338.617
793.558	325.894
793.687	341.340
793.815	335.468
793.943	354.468
794.071	350.362
794.199	328.064
794.327	336.404
794.455	406.511
794.583	421.213
794.712	323.915
794.840	329.383
794.968	336.213
795.096	349.468
795.224	323.851
795.352	322.830
795.480	360.298
795.608	336.894
795.737	328.936
795.865	327.277
795.993	311.809
796.121	312.553
796.249	318.426
796.377	335.617
796.505	323.404
796.633	303.702
796.762	318.617
796.890	334.723
797.018	335.936
797.146	311.404
797.274	311.298
797.402	313.830
797.530	327.298
797.658	315.894
797.787	357.511
797.915	315.383
798.043	327.106
798.171	302.298
798.299	315.064
798.427	303.362
798.555	312.745
798.683	296.851
798.812	310.298
798.940	368.553
799.068	312.681
799.196	349.447
799.324	298.574
799.452	309.298
799.580	299.851
799.708	364.936
799.837	293.617
799.965	310.234
800.093	321.213
800.221	286.426
800.349	301.936
800.477	304.340
800.605	306.511
800.733	314.298
800.862	313.191
800.990	339.170
801.118	285.851
801.246	291.340
801.374	307.532
801.502	296.064
801.630	289.447
801.758	309.851
801.887	319.043
802.015	291.681
802.143	289.128
802.271	313.745
802.399	296.936
802.527	288.787
802.655	326.638
802.783	347.681
802.912	299.894
803.040	299.191
803.168	282.915
803.296	270.957
803.424	301.723
803.552	285.277
803.680	291.298
803.808	294.468
803.937	293.723
804.065	278.277
804.193	290.340
804.321	341.894
804.449	273.745
804.577	288.596
804.705	297.298
804.833	317.809
804.962	284.468
805.090	285.553
805.218	293.532
805.346	297.745
805.474	304.362
805.602	306.915
805.730	292.255
805.858	268.915
805.987	295.574
806.115	296.553
806.243	290.957
806.371	316.298
806.499	390.617
806.627	416.638
806.755	388.085
806.883	302.043
807.012	279.596
807.140	304.489
807.268	289.511
807.396	303.404
807.524	267.532
807.652	276.681
807.780	344.979
807.908	273.809
808.037	317.872
808.165	306.021
808.293	284.894
808.421	331.426
808.549	273.979
808.677	277.128
808.805	314.511
808.933	281.191
809.062	295.574
809.190	333.426
809.318	278.255
809.446	279.000
809.574	331.957
809.702	270.468
809.830	283.723
809.958	288.021
810.087	279.340
810.215	294.872
810.343	288.277
810.471	290.234
810.599	270.723
810.727	274.447
810.855	259.787
810.983	264.149
811.112	287.064
811.240	272.617
811.368	287.362
811.496	311.745
811.624	281.383
811.752	269.894
811.880	277.362
812.008	254.787
812.137	293.617
812.265	254.617
812.393	284.021
812.521	297.255
812.649	274.468
812.777	266.766
812.905	297.872
813.033	256.766
813.162	265.936
813.290	263.681
813.418	289.489
813.546	267.809
813.674	259.234
813.802	270.043
813.930	243.574
814.058	256.000
814.187	272.957
814.315	260.064
814.443	273.894
814.571	277.277
814.699	290.809
814.827	269.660
814.955	262.064
815.083	287.745
815.212	287.745
815.340	293.383
815.468	261.723
815.596	272.979
815.724	278.000
815.852	257.447
815.980	261.915
816.108	257.064
816.237	250.766
816.365	271.149
816.493	276.957
816.621	255.532
816.749	271.681
816.877	274.426
817.005	285.149
817.133	271.638
817.262	253.745
817.390	262.298
817.518	255.660
817.646	267.255
817.774	246.787
817.902	257.277
818.030	257.298
818.158	292.979
818.287	273.255
818.415	247.426
818.543	253.000
818.671	282.872
818.799	255.660
818.927	274.255
819.055	264.894
819.183	254.468
819.312	253.511
819.440	251.383
819.568	252.234
819.696	262.915
819.824	268.043
819.952	253.255
820.080	269.383
820.208	252.745
820.337	249.426
820.465	292.936
820.593	257.043
820.721	254.596
820.849	256.936
820.977	259.702
821.105	268.128
821.233	239.447
821.362	279.766
821.490	246.872
821.618	254.617
821.746	245.191
821.874	256.106
822.002	250.872
822.130	253.702
822.258	239.957
822.387	242.404
822.515	263.574
822.643	262.532
822.771	255.745
822.899	258.489
823.027	293.617
823.155	239.596
823.283	238.830
823.412	257.043
823.540	251.106
823.668	296.638
823.796	243.660
823.924	276.723
824.052	287.830
824.180	261.511
824.308	244.064
824.437	246.447
824.565	243.660
824.693	270.936
824.821	263.723
824.949	257.298
825.077	259.064
825.205	288.043
825.333	263.447
825.462	275.979
825.590	255.170
825.718	279.043
825.846	246.191
825.974	239.362
826.102	250.553
826.230	247.277
826.358	243.745
826.487	245.298
826.615	283.489
826.743	242.936
826.871	269.426
826.999	297.957
827.127	256.000
827.255	255.638
827.383	235.830
827.512	262.872
827.640	243.872
827.768	234.532
827.896	254.681
828.024	243.702
828.152	246.787
828.280	244.553
828.408	243.638
828.537	244.255
828.665	254.532
828.793	257.298
828.921	232.340
829.049	260.979
829.177	237.723
829.305	232.702
829.433	249.957
829.562	256.894
829.690	235.532
829.818	273.851
829.946	249.872
830.074	248.532
830.202	263.468
830.330	266.638
830.458	287.957
830.587	243.745
830.715	249.702
830.843	243.830
830.971	255.362
831.099	267.936
831.227	236.447
831.355	236.170
831.483	251.596
831.612	274.511
831.740	243.340
831.868	251.723
831.996	239.574
832.124	239.702
832.252	230.128
832.380	258.085
832.508	296.213
832.637	240.957
832.765	244.319
832.893	279.830
833.021	242.957
833.149	225.638
833.277	247.021
833.405	238.128
833.533	232.085
833.662	237.766
833.790	232.745
833.918	252.191
834.046	277.574
834.174	254.255
834.302	236.681
834.430	230.851
834.558	244.723
834.687	255.170
834.815	224.404
834.943	243.064
835.071	243.043
835.199	240.851
835.327	255.660
835.455	229.617
835.583	273.064
835.712	231.936
835.840	236.234
835.968	233.872
836.096	285.404
836.224	253.532
836.352	229.617
836.480	247.468
836.608	247.617
836.737	232.191
836.865	228.787
836.993	244.851
837.121	241.064
837.249	233.106
837.377	263.043
837.505	248.851
837.633	233.000
837.762	239.915
837.890	267.511
838.018	267.277
838.146	281.447
838.274	253.277
838.402	265.149
838.530	238.787
838.658	221.638
838.787	247.426
838.915	246.702
839.043	223.830
839.171	256.638
839.299	223.234
839.427	237.191
839.555	239.936
839.683	255.979
839.812	262.064
839.940	230.936
840.068	246.340
840.196	248.085
840.324	234.468
840.452	235.128
840.580	271.255
840.708	241.723
840.837	271.936
840.965	227.638
841.093	238.787
841.221	230.213
841.349	243.213
841.477	242.404
841.605	254.447
841.733	235.021
841.862	242.936
841.990	291.830
842.118	217.340
842.246	237.681
842.374	238.340
842.502	220.000
842.630	246.383
842.758	258.851
842.887	228.809
843.015	236.638
843.143	254.936
843.271	238.723
843.399	271.191
843.527	244.340
843.655	222.106
843.783	234.979
843.912	235.681
844.040	268.021
844.168	224.660
844.296	226.319
844.424	219.617
844.552	246.149
844.680	251.043
844.808	252.383
844.937	234.702
845.065	237.681
845.193	255.574
845.321	241.128
845.449	230.277
845.577	239.298
845.705	231.851
845.833	226.468
845.962	247.447
846.090	226.447
846.218	238.000
846.346	249.213
846.474	246.234
846.602	232.085
846.730	268.106
846.858	249.362
846.987	237.702
847.115	226.255
847.243	257.404
847.371	250.574
847.499	248.681
847.627	237.191
847.755	221.553
847.883	238.213
848.012	241.894
848.140	228.745
848.268	249.723
848.396	227.298
848.524	255.553
848.652	212.574
848.780	231.319
848.908	240.596
849.037	230.106
849.165	242.957
849.293	247.936
849.421	244.957
849.549	239.894
849.677	241.596
849.805	236.787
849.933	236.489
850.062	228.702
850.190	232.468
850.318	238.553
850.446	233.106
850.574	216.404
850.702	232.745
850.830	234.426
850.958	245.553
851.087	221.106
851.215	237.447
851.343	226.894
851.471	233.383
851.599	237.447
851.727	241.149
851.855	278.128
851.983	241.851
852.112	236.872
852.240	228.489
852.368	234.872
852.496	227.532
852.624	226.957
852.752	237.213
852.880	215.872
853.008	238.426
853.137	235.681
853.265	242.957
853.393	240.213
853.521	249.447
853.649	240.660
853.777	224.277
853.905	240.234
854.033	229.681
854.162	285.447
854.290	232.872
854.418	222.170
854.546	227.043
854.674	330.383
854.802	238.936
854.930	219.979
855.058	213.106
855.187	215.596
855.315	250.511
855.443	213.681
855.571	221.766
855.699	223.787
855.827	228.191
855.955	229.872
856.083	228.064
856.212	244.489
856.340	229.383
856.468	279.340
856.596	254.319
856.724	235.277
856.852	236.021
856.980	228.085
857.108	240.894
857.237	216.362
857.365	260.979
857.493	225.638
857.621	217.447
857.749	229.787
857.877	241.021
858.005	247.340
858.133	228.723
858.262	231.085
858.390	221.894
858.518	213.915
858.646	216.021
858.774	227.468
858.902	202.532
859.030	231.787
859.158	241.787
859.287	240.915
859.415	259.723
859.543	216.383
859.671	216.404
859.799	241.277
859.927	233.000
860.055	231.872
860.183	243.149
860.312	230.362
860.440	232.851
860.568	229.915
860.696	215.787
860.824	291.787
860.952	274.766
861.080	234.404
861.208	230.128
861.337	240.021
861.465	256.830
861.593	253.043
861.721	227.596
861.849	227.617
861.977	213.936
862.105	241.851
862.233	253.319
862.362	235.106
862.490	248.234
862.618	214.128
862.746	228.000
862.874	223.957
863.002	222.723
863.130	255.894
863.258	228.660
863.387	243.830
863.515	244.064
863.643	236.532
863.771	298.766
863.899	229.617
864.027	219.915
864.155	216.021
864.283	251.277
864.412	224.234
864.540	224.362
864.668	220.830
864.796	229.191
864.924	233.638
865.052	231.191
865.180	219.362
865.308	207.255
865.437	231.340
865.565	226.596
865.693	260.745
865.821	235.426
865.949	245.340
866.077	230.553
866.205	243.660
866.333	242.489
866.462	225.809
866.590	231.043
866.718	236.489
866.846	228.681
866.974	236.809
867.102	247.489
867.230	258.340
867.358	230.723
867.487	223.191
867.615	246.255
867.743	230.851
867.871	239.170
867.999	236.319
868.127	221.468
868.255	274.957
868.383	267.830
868.512	224.979
868.640	222.532
868.768	219.574
868.896	214.617
869.024	263.000
869.152	226.298
869.280	243.043
869.408	263.106
869.537	219.213
869.665	296.404
869.793	224.319
869.921	258.617
870.049	234.000
870.177	238.319
870.305	269.809
870.433	211.894
870.562	236.170
870.690	220.681
870.818	217.043
870.946	238.404
871.074	264.298
871.202	241.511
871.330	246.149
871.458	211.234
871.587	223.787
871.715	234.106
871.843	216.447
871.971	221.766
872.099	229.830
872.227	226.234
872.355	243.766
872.483	238.000
872.612	238.872
872.740	239.660
872.868	223.723
872.996	227.021
873.124	222.979
873.252	224.723
873.380	229.638
873.508	216.106
873.637	242.234
873.765	219.319
873.893	280.149
874.021	232.468
874.149	221.702
874.277	231.553
874.405	220.106
874.533	235.404
874.662	1119.511
874.790	236.745
874.918	269.191
875.046	253.128
875.174	242.787
875.302	211.447
875.430	263.404
875.558	239.277
875.687	244.957
875.815	228.851
875.943	220.489
876.071	243.021
876.199	250.234
876.327	271.957
876.455	233.000
876.583	252.021
876.712	225.106
876.840	239.106
876.968	274.362
877.096	228.340
877.224	218.574
877.352	279.489
877.480	223.404
877.608	236.745
877.737	240.106
877.865	229.426
877.993	249.787
878.121	208.170
878.249	214.894
878.377	224.787
878.505	233.830
878.633	229.340
878.762	232.617
878.890	224.830
879.018	293.426
879.146	237.511
879.274	216.340
879.402	249.277
879.530	235.681
879.658	215.766
879.787	223.383
879.915	226.809
880.043	256.319
880.171	210.660
880.299	239.617
880.427	237.021
880.555	231.191
880.683	250.681
880.812	224.915
880.940	258.787
881.068	214.191
881.196	222.489
881.324	240.277
881.452	217.979
881.580	248.787
881.708	248.319
881.837	242.553
881.965	239.851
882.093	243.596
882.221	219.362
882.349	266.723
882.477	253.660
882.605	239.596
882.733	217.468
882.862	262.596
882.990	245.064
883.118	229.936
883.246	233.915
883.374	229.000
883.502	223.830
883.630	215.574
883.758	227.851
883.887	238.064
884.015	215.957
884.143	227.255
884.271	244.702
884.399	218.426
884.527	226.915
884.655	210.511
884.783	244.957
884.912	239.787
885.040	225.660
885.168	288.106
885.296	223.404
885.424	239.787
885.552	243.532
885.680	228.617
885.808	213.809
885.937	238.064
886.065	240.319
886.193	217.213
886.321	267.957
886.449	217.043
886.577	268.043
886.705	225.489
886.833	217.936
886.962	217.851
887.090	233.021
887.218	229.404
887.346	241.149
887.474	268.106
887.602	237.362
887.730	235.532
887.858	252.872
887.987	218.255
888.115	268.128
888.243	235.532
888.371	234.596
888.499	219.234
888.627	242.723
888.755	243.213
888.883	226.872
889.012	224.383
889.140	233.851
889.268	249.809
889.396	239.234
889.524	230.064
889.652	222.277
889.780	211.426
889.908	253.553
890.037	220.277
890.165	221.064
890.293	244.681
890.421	279.021
890.549	237.553
890.677	229.830
890.805	220.021
890.933	256.404
891.062	222.383
891.190	227.617
891.318	240.681
891.446	230.574
891.574	216.021
891.702	227.532
891.830	228.936
891.958	258.660
892.087	263.979
892.215	232.255
892.343	244.489
892.471	243.255
892.599	229.149
892.727	253.426
892.855	225.872
892.983	220.170
893.112	227.596
893.240	221.532
893.368	258.851
893.496	231.851
893.624	241.255
893.752	290.170
893.880	273.128
894.008	212.660
894.137	238.213
894.265	232.894
894.393	231.383
894.521	221.894
894.649	253.319
894.777	228.723
894.905	217.213
895.033	257.702
895.162	228.426
895.290	254.106
895.418	244.447
895.546	239.362
895.674	304.298
895.802	221.745
895.930	246.936
896.058	208.702
896.187	220.340
896.315	221.106
896.443	218.894
896.571	232.191
896.699	230.404
896.827	240.915
896.955	235.617
897.083	217.426
897.212	265.191
897.340	226.617
897.468	212.426
897.596	218.957
897.724	262.447
897.852	235.085
897.980	230.298
898.108	228.362
898.237	218.745
898.365	216.064
898.493	233.106
898.621	231.511
898.749	229.638
898.877	233.851
899.005	211.979
899.133	227.362
899.262	241.426
899.390	269.574
899.518	238.106
899.646	229.681
899.774	251.936
899.902	305.128
900.030	246.681
900.158	229.681
900.287	247.319
900.415	212.085
900.543	235.681
900.671	230.574
900.799	255.979
900.927	223.191
901.055	223.085
901.183	230.362
901.312	250.574
901.440	248.021
901.568	245.511
901.696	229.830
901.824	240.085
901.952	238.957
902.080	344.979
902.208	256.766
902.337	223.809
902.465	236.617
902.593	233.681
902.721	233.809
902.849	239.851
902.977	243.021
903.105	227.872
903.233	247.021
903.362	224.574
903.490	239.894
903.618	221.426
903.746	247.596
903.874	223.596
904.002	236.809
904.130	239.872
904.258	248.936
904.387	226.447
904.515	251.064
904.643	210.043
904.771	221.000
904.899	246.064
905.027	254.957
905.155	238.000
905.283	235.489
905.412	254.638
905.540	233.064
905.668	230.426
905.796	228.723
905.924	237.489
906.052	233.766
906.180	259.064
906.308	243.362
906.437	260.532
906.565	233.298
906.693	236.149
906.821	219.660
906.949	231.170
907.077	246.362
907.205	237.234
907.333	238.298
907.462	230.617
907.590	227.553
907.718	256.213
907.846	277.255
907.974	221.681
908.102	238.489
908.230	261.021
908.358	269.511
908.487	246.340
908.615	241.851
908.743	243.085
908.871	296.447
908.999	230.787
909.127	266.809
909.255	216.000
909.383	233.149
909.512	265.085
909.640	237.872
909.768	238.957
909.896	280.362
910.024	267.617
910.152	243.255
910.280	287.936
910.408	236.702
910.537	234.043
910.665	272.915
910.793	243.085
910.921	259.404
911.049	237.128
911.177	226.681
911.305	257.447
911.433	245.936
911.562	241.638
911.690	241.915
911.818	295.979
911.946	238.617
912.074	254.383
912.202	275.894
912.330	241.362
912.458	237.149
912.587	258.553
912.715	270.021
912.843	269.638
912.971	259.106
913.099	274.872
913.227	267.851
913.355	244.723
913.483	263.936
913.612	262.872
913.740	382.255
913.868	256.574
