90pol_70_130_at_750.00nm_cut_at_984.50Y_01.dat
24.04.2023
10:55:07
cut middle at Y: 984.50
top cursor: 1008 down cursor: 961 mean of: 47 lines , 2560 datapoints
wavelength(nm)	intensity[arb. units]
585.996	23951.979
586.124	23245.872
586.252	23072.574
586.380	23190.213
586.508	23192.830
586.637	23383.830
586.765	23400.064
586.893	23524.681
587.021	23514.511
587.149	23576.170
587.277	23606.915
587.405	23734.979
587.533	23687.574
587.662	23913.021
587.790	23938.851
587.918	23876.085
588.046	23968.404
588.174	23852.851
588.302	24064.128
588.430	23913.021
588.558	23981.000
588.687	24096.872
588.815	23973.170
588.943	24062.936
589.071	24077.809
589.199	24176.404
589.327	24167.128
589.455	24115.191
589.583	24247.851
589.712	24251.255
589.840	24250.106
589.968	24256.426
590.096	24336.426
590.224	24326.447
590.352	24371.894
590.480	24317.128
590.608	24393.426
590.737	24519.660
590.865	24473.298
590.993	24433.106
591.121	24533.383
591.249	24603.511
591.377	24532.766
591.505	24683.957
591.633	24641.915
591.762	24677.277
591.890	24870.128
592.018	24706.085
592.146	24839.255
592.274	24812.021
592.402	24930.617
592.530	24949.936
592.658	25221.979
592.787	25019.191
592.915	25252.872
593.043	25201.106
593.171	25347.255
593.299	25510.787
593.427	25457.085
593.555	25581.277
593.683	25593.340
593.812	25740.085
593.940	25707.894
594.068	25832.617
594.196	26071.830
594.324	26110.362
594.452	26072.149
594.580	26252.447
594.708	26373.234
594.837	26405.298
594.965	26516.106
595.093	26714.106
595.221	26703.681
595.349	26843.553
595.477	26911.213
595.605	27009.021
595.733	27044.532
595.862	27378.404
595.990	27184.596
596.118	27328.489
596.246	27499.681
596.374	27454.511
596.502	27544.362
596.630	27633.787
596.758	27709.532
596.887	27832.872
597.015	27824.234
597.143	27848.809
597.271	27905.702
597.399	27914.298
597.527	27980.489
597.655	28071.511
597.783	28018.766
597.912	28057.489
598.040	28072.851
598.168	28056.128
598.296	28121.340
598.424	28134.532
598.552	28124.596
598.680	28132.404
598.808	28221.468
598.937	28169.681
599.065	28106.638
599.193	28171.766
599.321	28221.702
599.449	28153.723
599.577	28145.277
599.705	28218.894
599.833	28317.511
599.962	28254.787
600.090	28277.340
600.218	28385.936
600.346	28338.340
600.474	28483.702
600.602	28484.766
600.730	28617.043
600.858	28641.277
600.987	28808.319
601.115	28771.362
601.243	28867.213
601.371	28922.128
601.499	29124.809
601.627	29184.553
601.755	29250.830
601.883	29416.255
602.012	29472.043
602.140	29519.660
602.268	29769.979
602.396	29863.532
602.524	30037.085
602.652	30103.851
602.780	30221.596
602.908	30289.766
603.037	30458.957
603.165	30543.213
603.293	30714.319
603.421	30817.851
603.549	31005.489
603.677	31182.106
603.805	31285.085
603.933	31506.979
604.062	31734.809
604.190	31810.383
604.318	32037.915
604.446	32079.106
604.574	32316.468
604.702	32446.596
604.830	32531.468
604.958	32682.277
605.087	32865.043
605.215	32921.043
605.343	33065.340
605.471	33197.638
605.599	33370.660
605.727	33406.362
605.855	33608.383
605.983	33625.894
606.112	33790.447
606.240	33790.660
606.368	33869.957
606.496	34071.617
606.624	34090.638
606.752	34191.702
606.880	34299.191
607.008	34444.574
607.137	34359.319
607.265	34278.809
607.393	34329.468
607.521	34534.362
607.649	34450.404
607.777	34438.043
607.905	34493.894
608.033	34509.468
608.162	34468.277
608.290	34573.638
608.418	34462.021
608.546	34639.787
608.674	34581.426
608.802	34555.234
608.930	34569.681
609.058	34591.426
609.187	34683.979
609.315	34719.468
609.443	34663.383
609.571	34718.617
609.699	34616.638
609.827	34746.149
609.955	34721.638
610.083	34706.255
610.212	34760.170
610.340	34709.000
610.468	34898.830
610.596	34928.447
610.724	35008.043
610.852	34909.191
610.980	35053.426
611.108	35083.957
611.237	34997.979
611.365	35117.043
611.493	35167.213
611.621	35295.787
611.749	35386.128
611.877	35539.638
612.005	35512.106
612.133	35714.064
612.262	35745.298
612.390	35883.957
612.518	35918.404
612.646	36172.489
612.774	36255.894
612.902	36393.553
613.030	36523.149
613.158	36820.830
613.287	36851.170
613.415	36821.298
613.543	36815.277
613.671	36951.915
613.799	37033.213
613.927	37111.383
614.055	37147.596
614.183	37440.745
614.312	37400.809
614.440	37524.383
614.568	37598.383
614.696	37803.000
614.824	38029.319
614.952	37939.000
615.080	38210.830
615.208	38298.319
615.337	38467.362
615.465	38599.149
615.593	38804.638
615.721	39016.000
615.849	39111.128
615.977	39224.106
616.105	39274.617
616.233	39305.936
616.362	39291.851
616.490	39575.468
616.618	39654.426
616.746	39785.957
616.874	39792.872
617.002	39774.191
617.130	39835.596
617.258	40012.872
617.387	40092.468
617.515	40101.362
617.643	40185.894
617.771	40219.851
617.899	40283.106
618.027	40300.149
618.155	40388.468
618.283	40414.064
618.412	40461.213
618.540	40598.234
618.668	40682.574
618.796	40798.851
618.924	40916.426
619.052	40888.574
619.180	40981.553
619.308	41019.447
619.437	40966.319
619.565	41040.489
619.693	41052.234
619.821	41074.723
619.949	41137.128
620.077	41347.532
620.205	41325.383
620.333	41365.681
620.462	41526.723
620.590	41456.979
620.718	41485.723
620.846	41468.000
620.974	41563.596
621.102	41688.404
621.230	41664.277
621.358	41758.106
621.487	41759.043
621.615	41679.106
621.743	41859.702
621.871	41800.085
621.999	41933.830
622.127	41908.489
622.255	41925.617
622.383	41956.957
622.512	41965.298
622.640	42137.426
622.768	41985.319
622.896	41978.787
623.024	42041.170
623.152	42140.979
623.280	42066.660
623.408	41961.638
623.537	42099.638
623.665	42090.702
623.793	42143.106
623.921	42050.532
624.049	42080.660
624.177	42032.553
624.305	42204.340
624.433	42154.213
624.562	42246.234
624.690	42164.277
624.818	42249.915
624.946	42378.234
625.074	42207.468
625.202	42295.681
625.330	42151.021
625.458	42220.574
625.587	42313.809
625.715	42300.723
625.843	42497.362
625.971	42329.234
626.099	42418.106
626.227	42394.723
626.355	42256.489
626.483	42522.404
626.612	42544.489
626.740	42481.149
626.868	42596.149
626.996	42636.128
627.124	42688.447
627.252	42612.340
627.380	42771.426
627.508	42787.128
627.637	42785.213
627.765	42901.404
627.893	43056.021
628.021	43024.085
628.149	43332.957
628.277	43367.191
628.405	43484.915
628.533	43245.979
628.662	43323.851
628.790	43328.936
628.918	43495.468
629.046	43540.872
629.174	43773.191
629.302	44084.149
629.430	44000.553
629.558	43957.766
629.687	44008.383
629.815	44057.298
629.943	44132.149
630.071	44163.255
630.199	44321.447
630.327	44298.149
630.455	44490.872
630.583	44514.319
630.712	44482.915
630.840	44645.745
630.968	44647.787
631.096	44606.723
631.224	44719.957
631.352	44738.043
631.480	44884.085
631.608	44922.000
631.737	44979.957
631.865	45086.447
631.993	45032.936
632.121	45164.340
632.249	45153.532
632.377	45165.255
632.505	45156.362
632.633	45066.447
632.762	45039.234
632.890	45131.745
633.018	45006.830
633.146	45231.511
633.274	44991.702
633.402	45057.617
633.530	44979.298
633.658	45097.404
633.787	44922.213
633.915	44946.936
634.043	44840.681
634.171	44944.447
634.299	44801.404
634.427	44886.915
634.555	44752.745
634.683	44769.596
634.812	44682.489
634.940	44647.149
635.068	44594.574
635.196	44541.426
635.324	44524.660
635.452	44513.617
635.580	44376.532
635.708	44263.745
635.837	44324.787
635.965	44333.809
636.093	44110.532
636.221	44174.362
636.349	44078.787
636.477	43931.128
636.605	44138.234
636.733	43771.085
636.862	43736.468
636.990	43782.468
637.118	43704.596
637.246	43648.128
637.374	43537.255
637.502	43529.085
637.630	43418.489
637.758	43358.702
637.887	43338.532
638.015	43174.298
638.143	43261.468
638.271	43073.426
638.399	43119.809
638.527	43057.043
638.655	42999.234
638.783	43063.255
638.912	43091.426
639.040	42985.511
639.168	42943.872
639.296	42815.106
639.424	42935.298
639.552	42692.766
639.680	43035.085
639.808	42741.723
639.937	42781.660
640.065	42700.234
640.193	42687.128
640.321	42657.596
640.449	42665.851
640.577	42701.255
640.705	42720.426
640.833	42826.553
640.962	42595.468
641.090	42576.277
641.218	42568.574
641.346	42562.234
641.474	42533.021
641.602	42551.021
641.730	42602.936
641.858	42691.723
641.987	42657.872
642.115	42636.085
642.243	42604.234
642.371	42625.851
642.499	42489.447
642.627	42636.723
642.755	42683.255
642.883	42682.915
643.012	42664.191
643.140	42630.298
643.268	42501.979
643.396	42554.021
643.524	42654.787
643.652	42645.128
643.780	42576.809
643.908	42626.574
644.037	42602.043
644.165	42558.128
644.293	42535.234
644.421	42670.894
644.549	42583.362
644.677	42584.702
644.805	42374.723
644.933	42310.809
645.062	42383.681
645.190	42275.830
645.318	42396.277
645.446	42168.106
645.574	42307.638
645.702	42182.340
645.830	42279.596
645.958	42009.149
646.087	42163.298
646.215	41898.830
646.343	42036.000
646.471	41748.128
646.599	41779.468
646.727	41733.723
646.855	41727.766
646.983	41676.511
647.112	41505.660
647.240	41590.936
647.368	41360.255
647.496	41414.149
647.624	41346.213
647.752	41124.787
647.880	41142.277
648.008	41075.723
648.137	41003.298
648.265	40883.277
648.393	40957.532
648.521	40816.979
648.649	40694.064
648.777	40633.085
648.905	40375.404
649.033	40295.809
649.162	40211.915
649.290	40128.277
649.418	39982.617
649.546	39989.383
649.674	39825.085
649.802	39617.894
649.930	39777.787
650.058	39455.936
650.187	39388.936
650.315	39327.532
650.443	39268.957
650.571	39118.872
650.699	39057.149
650.827	38919.021
650.955	38780.043
651.083	38734.809
651.212	38719.426
651.340	38623.596
651.468	38527.170
651.596	38384.064
651.724	38278.319
651.852	38170.149
651.980	38001.404
652.108	37984.404
652.237	37917.149
652.365	37859.149
652.493	37805.170
652.621	37644.085
652.749	37676.170
652.877	37468.277
653.005	37323.532
653.133	37243.681
653.262	37158.170
653.390	37069.957
653.518	37010.319
653.646	36992.745
653.774	37042.319
653.902	36682.255
654.030	36743.532
654.158	36583.553
654.287	36467.362
654.415	36357.170
654.543	36441.085
654.671	36171.660
654.799	36157.851
654.927	35941.809
655.055	35852.660
655.183	35831.596
655.312	35608.191
655.440	35617.511
655.568	35501.872
655.696	35391.213
655.824	35454.106
655.952	35240.319
656.080	35068.894
656.208	35126.255
656.337	34845.617
656.465	34874.064
656.593	34701.915
656.721	34477.213
656.849	34493.191
656.977	34321.596
657.105	34230.404
657.233	34078.170
657.362	33996.915
657.490	33858.532
657.618	33814.362
657.746	33738.170
657.874	33536.574
658.002	33439.426
658.130	33326.128
658.258	33141.894
658.387	33181.809
658.515	33020.638
658.643	32909.787
658.771	32816.319
658.899	32724.723
659.027	32634.468
659.155	32480.277
659.283	32485.255
659.412	32333.596
659.540	32261.213
659.668	32027.532
659.796	32005.255
659.924	31920.617
660.052	31812.979
660.180	31671.043
660.308	31611.596
660.437	31504.745
660.565	31434.255
660.693	31298.553
660.821	31196.532
660.949	31121.766
661.077	31028.851
661.205	31001.936
661.333	30863.915
661.462	30860.447
661.590	30653.532
661.718	30639.404
661.846	30449.553
661.974	30550.660
662.102	30263.894
662.230	30163.319
662.358	30053.064
662.487	30045.617
662.615	29910.191
662.743	29878.447
662.871	29822.298
662.999	29730.681
663.127	29594.532
663.255	29648.426
663.383	29520.128
663.512	29400.638
663.640	29426.340
663.768	29371.915
663.896	29352.234
664.024	29282.000
664.152	29215.426
664.280	29293.170
664.408	29188.277
664.537	29148.170
664.665	29006.936
664.793	28889.872
664.921	28808.660
665.049	28815.468
665.177	28753.213
665.305	28725.809
665.433	28565.106
665.562	28555.809
665.690	28452.809
665.818	28560.532
665.946	28431.830
666.074	28330.638
666.202	28253.553
666.330	28215.277
666.458	28129.787
666.587	28047.809
666.715	27980.213
666.843	27928.809
666.971	27900.979
667.099	27837.234
667.227	27795.681
667.355	27691.106
667.483	27668.596
667.612	27546.000
667.740	27567.787
667.868	27545.787
667.996	27444.191
668.124	27290.511
668.252	27270.660
668.380	27225.936
668.508	27113.830
668.637	27037.085
668.765	27007.234
668.893	26858.681
669.021	26827.936
669.149	26762.681
669.277	26715.234
669.405	26538.872
669.533	26583.894
669.662	26724.340
669.790	26432.489
669.918	26361.362
670.046	26168.809
670.174	26160.000
670.302	26052.170
670.430	25883.106
670.558	25841.511
670.687	25678.851
670.815	25696.766
670.943	25501.298
671.071	25355.021
671.199	25335.021
671.327	25183.957
671.455	25125.447
671.583	25048.149
671.712	25042.170
671.840	24909.340
671.968	24624.660
672.096	24576.170
672.224	24480.851
672.352	24473.681
672.480	24235.617
672.608	24109.149
672.737	23977.489
672.865	24048.638
672.993	23814.979
673.121	23689.936
673.249	23495.723
673.377	23431.936
673.505	23313.213
673.633	23178.234
673.762	23107.383
673.890	22983.766
674.018	23168.979
674.146	22821.872
674.274	22704.936
674.402	22762.617
674.530	22434.447
674.658	22428.915
674.787	22337.936
674.915	22097.851
675.043	22166.043
675.171	22026.851
675.299	21853.362
675.427	21806.277
675.555	21678.064
675.683	21568.255
675.812	21438.043
675.940	21423.681
676.068	21271.404
676.196	21179.383
676.324	21067.128
676.452	20972.894
676.580	20841.234
676.708	20819.745
676.837	20702.468
676.965	20582.532
677.093	20444.149
677.221	20391.745
677.349	20324.830
677.477	20214.298
677.605	20060.872
677.733	20004.787
677.862	19820.787
677.990	19773.170
678.118	19646.426
678.246	19631.021
678.374	19593.596
678.502	19406.979
678.630	19345.915
678.758	19227.277
678.887	19147.766
679.015	19041.489
679.143	19053.362
679.271	18861.383
679.399	18794.191
679.527	18718.681
679.655	18649.340
679.783	18642.830
679.912	18530.085
680.040	18448.426
680.168	18355.340
680.296	18301.000
680.424	18134.809
680.552	18133.574
680.680	18159.681
680.808	18027.426
680.937	17932.213
681.065	17821.362
681.193	17762.511
681.321	17801.787
681.449	17693.213
681.577	17564.553
681.705	17539.745
681.833	17532.149
681.962	17414.468
682.090	17549.468
682.218	17271.851
682.346	17208.638
682.474	17196.170
682.602	17148.255
682.730	17131.128
682.858	17001.447
682.987	17026.745
683.115	16978.957
683.243	16831.617
683.371	16806.830
683.499	16832.362
683.627	16747.277
683.755	16738.702
683.883	16782.319
684.012	16614.255
684.140	16511.489
684.268	16412.979
684.396	16419.000
684.524	16417.957
684.652	16400.298
684.780	16335.936
684.908	16304.702
685.037	16135.447
685.165	16056.681
685.293	16018.000
685.421	16106.532
685.549	15892.447
685.677	15862.638
685.805	15942.383
685.933	15845.596
686.062	15739.298
686.190	15626.617
686.318	15634.468
686.446	15543.426
686.574	15453.936
686.702	15501.702
686.830	15414.085
686.958	15278.638
687.087	15316.128
687.215	15251.170
687.343	15124.043
687.471	15106.617
687.599	14997.511
687.727	15149.255
687.855	14954.936
687.983	14956.745
688.112	14883.383
688.240	14739.723
688.368	14688.064
688.496	14725.255
688.624	14609.213
688.752	14510.851
688.880	14532.128
689.008	14432.106
689.137	14377.553
689.265	14320.872
689.393	14216.468
689.521	14163.681
689.649	14148.830
689.777	14037.745
689.905	13995.234
690.033	13954.128
690.162	13908.745
690.290	13798.191
690.418	13765.809
690.546	13808.936
690.674	13691.787
690.802	13537.489
690.930	13530.702
691.058	13477.957
691.187	13362.000
691.315	13323.021
691.443	13378.085
691.571	13253.511
691.699	13229.511
691.827	13160.362
691.955	13109.149
692.083	13026.255
692.212	13087.362
692.340	12905.723
692.468	12842.745
692.596	12800.957
692.724	12840.191
692.852	12656.660
692.980	12687.979
693.108	12572.149
693.237	12445.277
693.365	12402.660
693.493	12329.021
693.621	12304.511
693.749	12244.681
693.877	12191.702
694.005	12199.447
694.133	12113.085
694.262	12075.319
694.390	11915.574
694.518	11939.383
694.646	11856.830
694.774	11847.830
694.902	11952.128
695.030	11812.574
695.158	11626.000
695.287	11659.872
695.415	11588.021
695.543	11523.553
695.671	11562.766
695.799	11456.340
695.927	11412.723
696.055	11328.362
696.183	11289.319
696.312	11216.404
696.440	11326.128
696.568	11213.128
696.696	11192.872
696.824	10984.723
696.952	11012.191
697.080	10962.362
697.208	10894.979
697.337	10901.660
697.465	10800.723
697.593	10745.404
697.721	10652.787
697.849	10641.000
697.977	10600.426
698.105	10549.617
698.233	10444.830
698.362	10472.766
698.490	10426.298
698.618	10368.340
698.746	10435.447
698.874	10257.128
699.002	10403.638
699.130	10145.085
699.258	10160.468
699.387	10090.596
699.515	10055.915
699.643	10015.723
699.771	9992.979
699.899	9894.426
700.027	9873.000
700.155	9807.809
700.283	9738.383
700.412	9772.851
700.540	9641.745
700.668	9632.723
700.796	9504.617
700.924	9508.894
701.052	9416.979
701.180	9537.915
701.308	9417.383
701.437	9229.936
701.565	9201.319
701.693	9170.149
701.821	9144.809
701.949	9130.043
702.077	9103.979
702.205	9000.213
702.333	8961.191
702.462	8871.149
702.590	8879.149
702.718	8772.255
702.846	8701.170
702.974	8686.532
703.102	8699.830
703.230	8684.830
703.358	8608.021
703.487	8447.766
703.615	8591.191
703.743	8388.872
703.871	8348.255
703.999	8325.638
704.127	8357.106
704.255	8129.872
704.383	8320.872
704.512	8120.936
704.640	8068.213
704.768	7979.064
704.896	8006.936
705.024	7861.106
705.152	7933.383
705.280	7779.596
705.408	7760.766
705.537	7721.766
705.665	7636.511
705.793	7604.191
705.921	7478.128
706.049	7505.723
706.177	7448.872
706.305	7395.043
706.433	7486.936
706.562	7337.894
706.690	7287.809
706.818	7226.979
706.946	7414.043
707.074	7187.681
707.202	7130.851
707.330	7134.426
707.458	7021.979
707.587	6947.191
707.715	6924.447
707.843	6955.660
707.971	6917.787
708.099	6928.000
708.227	6812.277
708.355	6767.702
708.483	6716.702
708.612	6665.723
708.740	6667.489
708.868	6690.617
708.996	6604.830
709.124	6589.106
709.252	6529.064
709.380	6467.043
709.508	6487.213
709.637	6372.255
709.765	6369.745
709.893	6378.894
710.021	6312.383
710.149	6279.362
710.277	6315.723
710.405	6185.404
710.533	6208.915
710.662	6155.340
710.790	6142.489
710.918	6116.809
711.046	6067.319
711.174	6045.468
711.302	6032.191
711.430	6065.340
711.558	5907.404
711.687	5914.894
711.815	5909.489
711.943	5846.957
712.071	5882.085
712.199	5880.447
712.327	5828.277
712.455	5754.085
712.583	5744.340
712.712	5687.191
712.840	5705.723
712.968	5669.021
713.096	5688.404
713.224	5625.723
713.352	5615.340
713.480	5530.489
713.608	5571.170
713.737	5522.702
713.865	5491.404
713.993	5531.532
714.121	5440.000
714.249	5430.745
714.377	5489.021
714.505	5401.298
714.633	5513.426
714.762	5398.979
714.890	5308.723
715.018	5345.404
715.146	5274.255
715.274	5324.511
715.402	5395.021
715.530	5303.170
715.658	5191.255
715.787	5152.319
715.915	5327.085
716.043	5123.021
716.171	5148.915
716.299	5156.957
716.427	5101.277
716.555	5049.574
716.683	4999.447
716.812	5029.000
716.940	5005.064
717.068	4897.383
717.196	5075.191
717.324	4999.936
717.452	4905.191
717.580	4829.106
717.708	4811.553
717.837	4873.957
717.965	4744.277
718.093	4744.277
718.221	4706.447
718.349	4728.745
718.477	4728.128
718.605	4741.809
718.733	4671.404
718.862	4646.660
718.990	4583.234
719.118	4578.489
719.246	4499.766
719.374	4603.234
719.502	4551.021
719.630	4655.957
719.758	4459.170
719.887	4433.468
720.015	4604.489
720.143	4352.553
720.271	4348.511
720.399	4392.064
720.527	4382.447
720.655	4374.000
720.783	4366.043
720.912	4264.532
721.040	4248.191
721.168	4196.574
721.296	4232.638
721.424	4175.872
721.552	4098.851
721.680	4099.426
721.808	4123.745
721.937	4077.404
722.065	4163.553
722.193	4139.085
722.321	4008.702
722.449	3974.000
722.577	3949.809
722.705	3912.702
722.833	3931.830
722.962	3927.787
723.090	3824.638
723.218	3801.468
723.346	3789.489
723.474	3752.064
723.602	3884.915
723.730	3809.000
723.858	3890.915
723.987	3760.021
724.115	3777.553
724.243	3667.468
724.371	3681.596
724.499	3693.638
724.627	3564.936
724.755	3576.404
724.883	3538.213
725.012	3562.915
725.140	3556.106
725.268	3520.766
725.396	3411.787
725.524	3404.745
725.652	3439.745
725.780	3388.723
725.908	3454.596
726.037	3534.660
726.165	3350.404
726.293	3293.255
726.421	3300.511
726.549	3251.340
726.677	3276.979
726.805	3243.511
726.933	3173.787
727.062	3250.787
727.190	3199.170
727.318	3114.681
727.446	3145.915
727.574	3109.617
727.702	3227.404
727.830	3073.404
727.958	3146.915
728.087	3056.681
728.215	3160.362
728.343	3133.149
728.471	3005.149
728.599	2987.574
728.727	3130.149
728.855	2978.851
728.983	2963.745
729.112	2954.915
729.240	2921.511
729.368	2939.532
729.496	2919.340
729.624	2874.489
729.752	2833.489
729.880	2860.191
730.008	2801.191
730.137	2812.319
730.265	3020.447
730.393	2773.085
730.521	2900.915
730.649	2750.426
730.777	2757.702
730.905	2732.383
731.033	2842.085
731.162	2959.617
731.290	2807.170
731.418	2945.043
731.546	2873.298
731.674	2720.255
731.802	2785.851
731.930	2606.468
732.058	2594.234
732.187	2615.191
732.315	2563.723
732.443	2546.340
732.571	2777.340
732.699	2635.638
732.827	2635.787
732.955	2561.489
733.083	2498.149
733.212	2609.872
733.340	2592.426
733.468	2609.106
733.596	2528.532
733.724	2535.213
733.852	2517.447
733.980	2530.149
734.108	2594.319
734.237	2557.149
734.365	2543.426
734.493	2506.085
734.621	2486.553
734.749	2499.787
734.877	2466.872
735.005	2481.000
735.133	2474.872
735.262	2491.745
735.390	2425.660
735.518	2431.638
735.646	2418.915
735.774	2425.213
735.902	2415.681
736.030	2365.426
736.158	2437.106
736.287	2368.851
736.415	2395.957
736.543	2341.234
736.671	2330.681
736.799	2332.596
736.927	2368.128
737.055	2340.596
737.183	2307.574
737.312	2288.319
737.440	2310.468
737.568	2331.128
737.696	2274.106
737.824	2272.553
737.952	2242.106
738.080	2218.234
738.208	2246.617
738.337	2204.383
738.465	2275.660
738.593	2178.638
738.721	2155.085
738.849	2165.957
738.977	2174.617
739.105	2143.596
739.233	2156.043
739.362	2128.085
739.490	2091.277
739.618	2073.426
739.746	2094.617
739.874	2082.277
740.002	2058.660
740.130	2055.894
740.258	2033.702
740.387	2035.851
740.515	1993.723
740.643	1998.851
740.771	2043.574
740.899	1995.426
741.027	1981.702
741.155	2033.255
741.283	1947.447
741.412	1951.043
741.540	1949.915
741.668	1914.362
741.796	1919.340
741.924	1972.745
742.052	1909.596
742.180	1889.745
742.308	1889.191
742.437	1857.043
742.565	1903.064
742.693	1903.872
742.821	1840.000
742.949	1900.468
743.077	1848.468
743.205	1856.660
743.333	1831.277
743.462	1844.553
743.590	1833.319
743.718	1789.830
743.846	1819.191
743.974	1788.745
744.102	1774.511
744.230	1808.723
744.358	1741.319
744.487	1744.851
744.615	1762.702
744.743	1750.064
744.871	1723.766
744.999	1759.319
745.127	1683.702
745.255	1698.830
745.383	1718.213
745.512	1691.106
745.640	1658.745
745.768	1687.468
745.896	1671.489
746.024	1655.213
746.152	1650.617
746.280	1652.489
746.408	1627.383
746.537	1617.170
746.665	1639.191
746.793	1641.319
746.921	1587.894
747.049	1618.681
747.177	1622.489
747.305	1619.085
747.433	1635.894
747.562	1569.447
747.690	1562.872
747.818	1570.681
747.946	1554.979
748.074	1663.149
748.202	1562.000
748.330	1543.298
748.458	1555.617
748.587	1519.936
748.715	1505.596
748.843	1528.149
748.971	1505.000
749.099	1509.766
749.227	1520.234
749.355	1487.702
749.483	1478.830
749.612	1472.638
749.740	1460.532
749.868	1459.064
749.996	1466.085
750.124	1434.021
750.252	1463.957
750.380	1471.191
750.508	1430.383
750.637	1404.021
750.765	1449.745
750.893	1412.383
751.021	1430.894
751.149	1419.128
751.277	1427.979
751.405	1445.362
751.533	1466.638
751.662	1378.426
751.790	1408.319
751.918	1358.745
752.046	1366.979
752.174	1365.915
752.302	1409.149
752.430	1354.957
752.558	1325.213
752.687	1324.149
752.815	1329.170
752.943	1306.383
753.071	1287.234
753.199	1301.106
753.327	1349.128
753.455	1302.830
753.583	1265.404
753.712	1284.085
753.840	1269.894
753.968	1255.021
754.096	1253.468
754.224	1257.213
754.352	1238.383
754.480	1238.638
754.608	1242.574
754.737	1232.809
754.865	1277.255
754.993	1230.723
755.121	1211.851
755.249	1280.851
755.377	1218.532
755.505	1198.660
755.633	1215.128
755.762	1179.532
755.890	1261.872
756.018	1239.660
756.146	1166.468
756.274	1172.915
756.402	1165.277
756.530	1166.723
756.658	1181.404
756.787	1168.447
756.915	1105.532
757.043	1159.957
757.171	1144.128
757.299	1131.511
757.427	1118.468
757.555	1114.021
757.683	1145.426
757.812	1097.957
757.940	1103.149
758.068	1080.340
758.196	1075.638
758.324	1074.298
758.452	1156.255
758.580	1073.298
758.708	1081.787
758.837	1053.957
758.965	1162.723
759.093	1047.511
759.221	1034.234
759.349	1030.957
759.477	1026.021
759.605	1016.702
759.733	1002.468
759.862	1015.085
759.990	996.489
760.118	998.553
760.246	993.851
760.374	1003.000
760.502	1012.787
760.630	981.766
760.758	981.298
760.887	953.340
761.015	968.681
761.143	953.447
761.271	966.362
761.399	945.064
761.527	960.319
761.655	942.064
761.783	921.362
761.912	939.383
762.040	918.255
762.168	948.511
762.296	914.085
762.424	898.766
762.552	912.660
762.680	961.489
762.808	881.553
762.937	895.489
763.065	945.234
763.193	930.106
763.321	898.340
763.449	860.766
763.577	881.957
763.705	875.511
763.833	937.915
763.962	863.021
764.090	850.319
764.218	869.447
764.346	850.489
764.474	824.766
764.602	834.319
764.730	824.128
764.858	846.043
764.987	830.830
765.115	864.894
765.243	821.106
765.371	807.043
765.499	788.766
765.627	795.340
765.755	778.723
765.883	806.574
766.012	801.340
766.140	778.702
766.268	787.064
766.396	765.426
766.524	770.319
766.652	766.447
766.780	753.255
766.908	772.404
767.037	769.681
767.165	779.213
767.293	821.277
767.421	753.681
767.549	759.404
767.677	762.766
767.805	744.894
767.933	755.766
768.062	758.000
768.190	751.447
768.318	718.149
768.446	737.489
768.574	768.979
768.702	741.149
768.830	719.851
768.958	720.468
769.087	705.064
769.215	712.468
769.343	706.404
769.471	691.638
769.599	732.021
769.727	720.043
769.855	709.702
769.983	695.255
770.112	683.447
770.240	672.532
770.368	676.872
770.496	665.170
770.624	681.872
770.752	697.468
770.880	698.830
771.008	676.128
771.137	678.298
771.265	718.915
771.393	679.638
771.521	670.745
771.649	655.277
771.777	654.574
771.905	651.596
772.033	662.191
772.162	680.170
772.290	650.553
772.418	699.128
772.546	664.340
772.674	640.085
772.802	664.638
772.930	688.298
773.058	642.170
773.187	654.298
773.315	623.660
773.443	652.723
773.571	639.106
773.699	641.766
773.827	624.085
773.955	661.064
774.083	650.681
774.212	630.702
774.340	650.596
774.468	626.809
774.596	618.277
774.724	613.660
774.852	620.298
774.980	624.128
775.108	619.128
775.237	610.745
775.365	610.830
775.493	614.511
775.621	605.936
775.749	610.511
775.877	601.617
776.005	610.809
776.133	622.957
776.262	615.830
776.390	587.447
776.518	628.787
776.646	597.085
776.774	604.234
776.902	594.234
777.030	589.043
777.158	601.745
777.287	604.170
777.415	568.638
777.543	571.447
777.671	563.191
777.799	565.298
777.927	569.255
778.055	583.277
778.183	565.532
778.312	545.745
778.440	562.894
778.568	577.298
778.696	557.319
778.824	566.617
778.952	567.809
779.080	551.894
779.208	578.170
779.337	568.191
779.465	556.064
779.593	554.766
779.721	576.426
779.849	556.851
779.977	542.851
780.105	538.553
780.233	557.681
780.362	571.638
780.490	576.468
780.618	543.213
780.746	541.064
780.874	529.638
781.002	538.255
781.130	520.723
781.258	517.851
781.387	524.936
781.515	561.957
781.643	521.894
781.771	560.170
781.899	521.745
782.027	565.915
782.155	525.213
782.283	525.638
782.412	510.553
782.540	515.872
782.668	537.234
782.796	492.957
782.924	541.255
783.052	497.766
783.180	534.128
783.308	500.894
783.437	505.404
783.565	514.340
783.693	509.766
783.821	504.426
783.949	492.021
784.077	515.149
784.205	504.809
784.333	543.468
784.462	476.745
784.590	498.404
784.718	501.234
784.846	481.596
784.974	508.064
785.102	537.383
785.230	486.277
785.358	530.872
785.487	490.106
785.615	494.277
785.743	484.404
785.871	484.213
785.999	472.255
786.127	463.298
786.255	485.383
786.383	502.532
786.512	496.043
786.640	474.979
786.768	498.170
786.896	460.872
787.024	473.149
787.152	475.106
787.280	475.617
787.408	461.426
787.537	483.383
787.665	471.915
787.793	500.809
787.921	464.447
788.049	464.787
788.177	454.872
788.305	455.319
788.433	475.128
788.562	455.404
788.690	448.149
788.818	453.830
788.946	468.128
789.074	441.511
789.202	464.191
789.330	463.660
789.458	449.213
789.587	495.787
789.715	454.638
789.843	453.787
789.971	443.617
790.099	445.596
790.227	457.979
790.355	445.830
790.483	464.298
790.612	444.319
790.740	450.085
790.868	456.468
790.996	445.723
791.124	441.298
791.252	442.660
791.380	444.043
791.508	455.085
791.637	436.872
791.765	433.426
791.893	428.213
792.021	429.340
792.149	437.872
792.277	439.553
792.405	416.489
792.533	440.894
792.662	407.298
792.790	429.085
792.918	449.532
793.046	420.383
793.174	458.617
793.302	428.915
793.430	428.128
793.558	411.596
793.687	430.468
793.815	421.681
793.943	434.383
794.071	433.681
794.199	425.702
794.327	424.851
794.455	484.255
794.583	512.809
794.712	415.532
794.840	415.000
794.968	422.574
795.096	438.255
795.224	409.511
795.352	411.170
795.480	441.723
795.608	414.362
795.737	412.596
795.865	405.447
795.993	400.383
796.121	404.851
796.249	401.468
796.377	417.298
796.505	405.149
796.633	392.915
796.762	396.596
796.890	412.191
797.018	422.383
797.146	386.638
797.274	379.170
797.402	394.511
797.530	406.851
797.658	388.298
797.787	439.957
797.915	393.255
798.043	413.787
798.171	384.213
798.299	396.596
798.427	376.426
798.555	396.660
798.683	367.340
798.812	388.404
798.940	445.234
799.068	387.404
799.196	414.383
799.324	374.596
799.452	388.638
799.580	367.574
799.708	431.787
799.837	375.404
799.965	373.681
800.093	396.043
800.221	354.681
800.349	381.681
800.477	375.319
800.605	384.383
800.733	377.574
800.862	380.000
800.990	411.000
801.118	358.468
801.246	357.766
801.374	378.149
801.502	369.489
801.630	351.872
801.758	369.596
801.887	389.043
802.015	359.255
802.143	346.362
802.271	378.468
802.399	366.426
802.527	345.872
802.655	390.660
802.783	408.702
802.912	363.936
803.040	361.191
803.168	343.915
803.296	339.447
803.424	368.149
803.552	359.404
803.680	354.447
803.808	365.596
803.937	357.298
804.065	343.894
804.193	356.213
804.321	397.511
804.449	336.489
804.577	345.319
804.705	353.872
804.833	386.298
804.962	341.957
805.090	349.915
805.218	355.213
805.346	354.723
805.474	359.426
805.602	373.957
805.730	345.021
805.858	331.936
805.987	342.213
806.115	354.617
806.243	356.021
806.371	370.128
806.499	452.298
806.627	478.043
806.755	449.362
806.883	348.638
807.012	339.277
807.140	368.872
807.268	353.170
807.396	357.532
807.524	325.191
807.652	334.149
807.780	400.298
807.908	330.085
808.037	383.234
808.165	357.404
808.293	338.340
808.421	381.511
808.549	326.681
808.677	333.596
808.805	378.638
808.933	337.553
809.062	350.936
809.190	385.851
809.318	327.979
809.446	335.170
809.574	373.830
809.702	321.000
809.830	338.234
809.958	340.170
810.087	334.340
810.215	345.064
810.343	340.128
810.471	334.787
810.599	320.064
810.727	325.915
810.855	312.404
810.983	314.447
811.112	336.043
811.240	322.277
811.368	340.638
811.496	364.128
811.624	346.043
811.752	319.234
811.880	333.489
812.008	316.596
812.137	339.851
812.265	306.000
812.393	338.574
812.521	348.809
812.649	325.021
812.777	316.191
812.905	346.511
813.033	311.340
813.162	307.298
813.290	315.532
813.418	330.596
813.546	313.553
813.674	310.468
813.802	326.085
813.930	302.553
814.058	307.000
814.187	329.681
814.315	311.277
814.443	322.745
814.571	331.702
814.699	332.426
814.827	313.170
814.955	310.128
815.083	337.426
815.212	330.064
815.340	347.596
815.468	297.340
815.596	311.638
815.724	317.277
815.852	300.915
815.980	303.574
816.108	310.574
816.237	305.723
816.365	318.660
816.493	322.255
816.621	301.255
816.749	311.702
816.877	317.511
817.005	327.936
817.133	322.085
817.262	299.617
817.390	307.936
817.518	300.085
817.646	318.447
817.774	295.340
817.902	294.213
818.030	295.872
818.158	344.064
818.287	319.213
818.415	290.128
818.543	309.787
818.671	320.383
818.799	295.723
818.927	315.596
819.055	316.638
819.183	294.638
819.312	300.511
819.440	299.638
819.568	288.213
819.696	304.468
819.824	315.574
819.952	295.532
820.080	305.936
820.208	295.830
820.337	294.830
820.465	326.277
820.593	295.660
820.721	295.830
820.849	302.681
820.977	293.596
821.105	304.936
821.233	277.319
821.362	312.170
821.490	285.681
821.618	287.872
821.746	286.957
821.874	294.574
822.002	291.468
822.130	295.723
822.258	275.872
822.387	278.553
822.515	301.638
822.643	298.000
822.771	297.106
822.899	296.702
823.027	331.766
823.155	275.106
823.283	277.426
823.412	298.064
823.540	284.489
823.668	335.723
823.796	279.128
823.924	315.596
824.052	310.362
824.180	291.745
824.308	283.638
824.437	277.809
824.565	273.064
824.693	309.043
824.821	295.447
824.949	289.149
825.077	295.617
825.205	329.404
825.333	302.064
825.462	304.957
825.590	283.191
825.718	307.170
825.846	277.596
825.974	276.234
826.102	281.532
826.230	277.128
826.358	281.085
826.487	270.574
826.615	322.447
826.743	273.383
826.871	297.362
826.999	338.234
827.127	289.638
827.255	286.298
827.383	270.979
827.512	298.681
827.640	266.319
827.768	268.766
827.896	284.596
828.024	275.809
828.152	283.809
828.280	272.298
828.408	272.617
828.537	270.170
828.665	286.149
828.793	288.511
828.921	265.362
829.049	288.319
829.177	277.830
829.305	269.957
829.433	285.106
829.562	290.957
829.690	263.085
829.818	296.468
829.946	273.000
830.074	284.298
830.202	293.277
830.330	300.149
830.458	314.404
830.587	272.553
830.715	274.489
830.843	274.340
830.971	280.681
831.099	294.319
831.227	271.979
831.355	270.532
831.483	281.979
831.612	307.809
831.740	276.319
831.868	277.085
831.996	274.468
832.124	265.532
832.252	252.213
832.380	279.745
832.508	317.532
832.637	270.957
832.765	274.681
832.893	304.638
833.021	261.213
833.149	256.596
833.277	275.085
833.405	269.489
833.533	260.021
833.662	264.319
833.790	270.979
833.918	275.340
834.046	309.426
834.174	269.319
834.302	266.213
834.430	260.638
834.558	269.574
834.687	273.128
834.815	254.447
834.943	271.362
835.071	266.340
835.199	269.085
835.327	288.745
835.455	257.043
835.583	292.532
835.712	253.617
835.840	260.681
835.968	259.319
836.096	309.298
836.224	276.766
836.352	258.681
836.480	273.064
836.608	270.532
836.737	257.936
836.865	256.340
836.993	277.447
837.121	266.532
837.249	258.511
837.377	286.702
837.505	271.617
837.633	258.809
837.762	261.872
837.890	294.681
838.018	294.021
838.146	303.511
838.274	274.426
838.402	288.426
838.530	262.553
838.658	245.872
838.787	268.532
838.915	260.745
839.043	250.106
839.171	276.468
839.299	253.043
839.427	266.809
839.555	262.574
839.683	278.532
839.812	288.085
839.940	251.426
840.068	269.617
840.196	273.872
840.324	258.255
840.452	260.000
840.580	291.064
840.708	259.915
840.837	291.766
840.965	255.106
841.093	266.234
841.221	251.574
841.349	258.979
841.477	267.489
841.605	272.851
841.733	260.191
841.862	262.936
841.990	312.638
842.118	244.532
842.246	263.553
842.374	257.106
842.502	243.362
842.630	270.128
842.758	283.426
842.887	249.106
843.015	253.553
843.143	278.426
843.271	262.723
843.399	297.000
843.527	265.426
843.655	229.936
843.783	255.255
843.912	251.170
844.040	284.936
844.168	245.957
844.296	248.362
844.424	246.234
844.552	270.234
844.680	273.191
844.808	271.766
844.937	258.574
845.065	255.979
845.193	275.617
845.321	253.574
845.449	246.468
845.577	251.106
845.705	249.702
845.833	242.894
845.962	265.170
846.090	254.149
846.218	253.170
846.346	261.894
846.474	263.489
846.602	252.915
846.730	291.234
846.858	272.106
846.987	255.957
847.115	243.277
847.243	270.894
847.371	265.277
847.499	268.383
847.627	250.532
847.755	248.277
847.883	260.362
848.012	264.957
848.140	254.447
848.268	268.979
848.396	240.170
848.524	272.766
848.652	228.043
848.780	251.298
848.908	256.383
849.037	245.638
849.165	267.021
849.293	260.915
849.421	268.362
849.549	252.489
849.677	259.277
849.805	252.404
849.933	257.957
850.062	247.043
850.190	247.234
850.318	261.638
850.446	242.851
850.574	233.894
850.702	246.809
850.830	247.660
850.958	264.511
851.087	234.553
851.215	256.191
851.343	238.809
851.471	249.851
851.599	264.234
851.727	253.638
851.855	297.532
851.983	257.681
852.112	248.617
852.240	246.447
852.368	246.596
852.496	242.064
852.624	241.830
852.752	246.723
852.880	228.043
853.008	250.021
853.137	253.872
853.265	260.915
853.393	250.617
853.521	263.660
853.649	253.532
853.777	241.787
853.905	257.489
854.033	248.894
854.162	304.979
854.290	248.766
854.418	236.426
854.546	239.830
854.674	346.000
854.802	248.043
854.930	233.149
855.058	233.894
855.187	231.894
855.315	263.787
855.443	227.596
855.571	236.553
855.699	240.021
855.827	245.787
855.955	242.043
856.083	242.553
856.212	250.064
856.340	235.170
856.468	288.106
856.596	269.000
856.724	241.426
856.852	242.702
856.980	240.319
857.108	253.404
857.237	232.638
857.365	264.085
857.493	238.979
857.621	232.894
857.749	249.149
857.877	256.340
858.005	260.383
858.133	246.191
858.262	243.340
858.390	237.426
858.518	233.277
858.646	229.638
858.774	240.596
858.902	220.191
859.030	239.426
859.158	254.574
859.287	250.255
859.415	269.553
859.543	229.277
859.671	232.574
859.799	263.745
859.927	241.319
860.055	241.702
860.183	255.340
860.312	248.340
860.440	245.106
860.568	239.085
860.696	226.149
860.824	305.766
860.952	285.149
861.080	245.340
861.208	245.787
861.337	240.809
861.465	268.191
861.593	271.021
861.721	236.723
861.849	238.681
861.977	226.128
862.105	249.021
862.233	270.362
862.362	251.872
862.490	261.064
862.618	228.851
862.746	233.447
862.874	235.085
863.002	234.255
863.130	267.979
863.258	240.468
863.387	255.723
863.515	252.936
863.643	248.723
863.771	312.872
863.899	242.979
864.027	238.170
864.155	231.553
864.283	256.894
864.412	236.340
864.540	231.511
864.668	226.468
864.796	234.809
864.924	242.809
865.052	242.723
865.180	229.255
865.308	220.957
865.437	244.596
865.565	250.298
865.693	269.957
865.821	247.660
865.949	262.064
866.077	244.681
866.205	250.532
866.333	255.532
866.462	231.787
866.590	243.894
866.718	255.532
866.846	236.979
866.974	254.383
867.102	253.766
867.230	272.702
867.358	241.660
867.487	234.617
867.615	254.787
867.743	247.894
867.871	241.298
867.999	245.277
868.127	236.106
868.255	289.681
868.383	288.447
868.512	231.681
868.640	236.532
868.768	228.809
868.896	225.064
869.024	269.277
869.152	240.617
869.280	248.617
869.408	271.979
869.537	233.957
869.665	305.085
869.793	230.468
869.921	270.043
870.049	246.383
870.177	245.319
870.305	283.404
870.433	224.957
870.562	253.043
870.690	223.468
870.818	230.043
870.946	245.723
871.074	267.170
871.202	247.681
871.330	255.787
871.458	221.213
871.587	231.638
871.715	241.915
871.843	232.064
871.971	237.298
872.099	239.128
872.227	231.702
872.355	256.830
872.483	245.340
872.612	251.766
872.740	250.447
872.868	236.511
872.996	242.277
873.124	233.128
873.252	236.319
873.380	234.404
873.508	225.489
873.637	252.404
873.765	231.191
873.893	285.277
874.021	239.234
874.149	232.340
874.277	239.851
874.405	227.915
874.533	234.957
874.662	1126.957
874.790	239.702
874.918	269.021
875.046	261.404
875.174	250.362
875.302	227.106
875.430	273.511
875.558	247.064
875.687	256.277
875.815	239.979
875.943	235.936
876.071	252.894
876.199	263.447
876.327	280.234
876.455	237.277
876.583	254.851
876.712	235.681
876.840	252.489
876.968	278.617
877.096	231.957
877.224	225.170
877.352	290.085
877.480	227.787
877.608	239.723
877.737	252.532
877.865	237.979
877.993	256.340
878.121	222.979
878.249	235.936
878.377	231.043
878.505	237.894
878.633	233.298
878.762	230.234
878.890	225.468
879.018	301.021
879.146	236.681
879.274	228.915
879.402	258.468
879.530	242.468
879.658	223.681
879.787	232.511
879.915	233.170
880.043	262.106
880.171	219.213
880.299	253.340
880.427	246.277
880.555	242.766
880.683	261.255
880.812	229.362
880.940	262.426
881.068	222.745
881.196	229.872
881.324	251.511
881.452	222.936
881.580	256.872
881.708	259.255
881.837	247.043
881.965	244.681
882.093	250.532
882.221	228.915
882.349	271.064
882.477	260.213
882.605	252.447
882.733	228.787
882.862	268.319
882.990	244.936
883.118	234.787
883.246	242.085
883.374	233.106
883.502	231.638
883.630	220.489
883.758	237.064
883.887	241.511
884.015	220.766
884.143	229.574
884.271	252.383
884.399	231.936
884.527	234.979
884.655	218.319
884.783	251.085
884.912	259.043
885.040	227.830
885.168	303.085
885.296	232.362
885.424	250.085
885.552	254.064
885.680	239.447
885.808	227.298
885.937	246.000
886.065	250.702
886.193	223.830
886.321	270.383
886.449	226.511
886.577	281.979
886.705	235.702
886.833	226.511
886.962	228.830
887.090	244.936
887.218	242.234
887.346	254.809
887.474	264.447
887.602	246.787
887.730	250.383
887.858	259.617
887.987	231.128
888.115	274.149
888.243	244.702
888.371	246.894
888.499	234.298
888.627	253.851
888.755	247.766
888.883	239.255
889.012	246.191
889.140	236.383
889.268	259.149
889.396	252.000
889.524	239.043
889.652	226.085
889.780	217.809
889.908	268.043
890.037	229.298
890.165	233.021
890.293	263.404
890.421	288.000
890.549	247.234
890.677	243.085
890.805	225.553
890.933	261.511
891.062	241.872
891.190	236.447
891.318	248.553
891.446	236.362
891.574	225.638
891.702	230.915
891.830	237.213
891.958	265.191
892.087	270.660
892.215	245.681
892.343	246.936
892.471	254.170
892.599	227.851
892.727	263.128
892.855	231.170
892.983	223.638
893.112	237.298
893.240	229.787
893.368	265.234
893.496	235.043
893.624	241.660
893.752	294.894
893.880	278.915
894.008	220.149
894.137	244.043
894.265	243.468
894.393	238.660
894.521	236.660
894.649	260.979
894.777	241.064
894.905	224.596
895.033	273.106
895.162	236.809
895.290	275.915
895.418	251.596
895.546	246.532
895.674	313.553
895.802	229.574
895.930	256.723
896.058	222.106
896.187	229.872
896.315	227.447
896.443	231.426
896.571	241.021
896.699	237.021
896.827	246.149
896.955	247.149
897.083	227.298
897.212	270.468
897.340	234.851
897.468	219.128
897.596	232.213
897.724	279.298
897.852	241.383
897.980	233.553
898.108	245.043
898.237	231.064
898.365	228.149
898.493	242.319
898.621	243.000
898.749	234.255
898.877	244.170
899.005	222.851
899.133	234.340
899.262	251.915
899.390	273.298
899.518	244.000
899.646	233.362
899.774	260.723
899.902	315.553
900.030	252.957
900.158	244.830
900.287	257.915
900.415	219.745
900.543	245.872
900.671	237.298
900.799	268.915
900.927	231.000
901.055	229.638
901.183	240.489
901.312	260.723
901.440	257.213
901.568	252.000
901.696	243.404
901.824	249.043
901.952	247.681
902.080	351.149
902.208	268.511
902.337	235.362
902.465	245.340
902.593	241.766
902.721	244.191
902.849	250.617
902.977	247.319
903.105	238.277
903.233	258.319
903.362	242.362
903.490	254.702
903.618	235.596
903.746	261.149
903.874	230.362
904.002	250.255
904.130	249.021
904.258	260.851
904.387	236.851
904.515	253.553
904.643	223.511
904.771	235.426
904.899	251.851
905.027	269.979
905.155	251.000
905.283	241.574
905.412	263.596
905.540	239.213
905.668	242.319
905.796	234.787
905.924	244.426
906.052	239.979
906.180	262.255
906.308	248.404
906.437	271.830
906.565	243.617
906.693	249.255
906.821	228.489
906.949	239.851
907.077	256.468
907.205	248.319
907.333	248.511
907.462	236.213
907.590	241.149
907.718	260.532
907.846	286.043
907.974	237.000
908.102	238.106
908.230	272.553
908.358	280.660
908.487	248.830
908.615	250.277
908.743	254.213
908.871	301.915
908.999	247.745
909.127	279.915
909.255	223.426
909.383	242.894
909.512	276.362
909.640	246.489
909.768	244.149
909.896	293.043
910.024	264.149
910.152	249.255
910.280	290.213
910.408	249.936
910.537	243.617
910.665	276.128
910.793	252.745
910.921	267.660
911.049	244.660
911.177	236.000
911.305	269.553
911.433	253.872
911.562	249.596
911.690	256.468
911.818	301.660
911.946	244.915
912.074	261.170
912.202	284.957
912.330	248.191
912.458	251.319
912.587	261.766
912.715	268.851
912.843	274.872
912.971	265.170
913.099	281.745
913.227	272.085
913.355	263.170
913.483	272.000
913.612	272.213
913.740	384.383
913.868	260.936
