90pol_70_120_at_750.00nm_cut_at_984.50Y_01.dat
24.04.2023
10:54:36
cut middle at Y: 984.50
top cursor: 1008 down cursor: 961 mean of: 47 lines , 2560 datapoints
wavelength(nm)	intensity[arb. units]
585.996	23263.362
586.124	22686.383
586.252	22494.787
586.380	22510.000
586.508	22579.851
586.637	22672.170
586.765	22880.957
586.893	22870.319
587.021	22866.830
587.149	22925.426
587.277	23003.128
587.405	23094.298
587.533	23022.213
587.662	23204.340
587.790	23179.255
587.918	23112.532
588.046	23222.957
588.174	23220.064
588.302	23308.851
588.430	23231.000
588.558	23215.170
588.687	23383.255
588.815	23343.894
588.943	23274.213
589.071	23357.213
589.199	23432.979
589.327	23432.128
589.455	23355.681
589.583	23514.851
589.712	23468.489
589.840	23450.021
589.968	23477.255
590.096	23550.681
590.224	23532.574
590.352	23549.426
590.480	23524.404
590.608	23581.872
590.737	23656.319
590.865	23693.085
590.993	23635.021
591.121	23741.851
591.249	23721.404
591.377	23807.787
591.505	23792.532
591.633	23842.383
591.762	23759.426
591.890	23976.383
592.018	23852.681
592.146	23940.957
592.274	23948.745
592.402	23952.170
592.530	24066.255
592.658	24330.702
592.787	24191.894
592.915	24382.511
593.043	24329.383
593.171	24393.681
593.299	24530.532
593.427	24586.872
593.555	24639.170
593.683	24720.021
593.812	24865.979
593.940	24794.830
594.068	24993.936
594.196	25133.532
594.324	25194.574
594.452	25217.064
594.580	25338.255
594.708	25401.872
594.837	25438.043
594.965	25574.489
595.093	25759.511
595.221	25706.617
595.349	25942.255
595.477	25967.106
595.605	25986.723
595.733	25991.851
595.862	26311.702
595.990	26171.894
596.118	26267.298
596.246	26539.851
596.374	26401.894
596.502	26533.553
596.630	26503.553
596.758	26645.830
596.887	26590.979
597.015	26724.723
597.143	26828.979
597.271	26849.957
597.399	26902.234
597.527	26874.340
597.655	26988.340
597.783	26936.787
597.912	26876.468
598.040	27055.894
598.168	26982.830
598.296	27036.128
598.424	26992.383
598.552	27035.426
598.680	26984.638
598.808	27226.383
598.937	27123.000
599.065	27080.574
599.193	27149.043
599.321	27169.851
599.449	27151.787
599.577	27136.447
599.705	27272.660
599.833	27204.170
599.962	27279.511
600.090	27270.106
600.218	27380.574
600.346	27405.468
600.474	27350.936
600.602	27460.043
600.730	27550.213
600.858	27614.319
600.987	27807.936
601.115	27828.702
601.243	27876.787
601.371	27891.872
601.499	28061.426
601.627	28107.830
601.755	28210.809
601.883	28243.532
602.012	28448.170
602.140	28440.383
602.268	28733.213
602.396	28747.851
602.524	28984.340
602.652	28988.766
602.780	29147.702
602.908	29289.064
603.037	29446.894
603.165	29473.426
603.293	29688.149
603.421	29801.426
603.549	29887.660
603.677	30072.106
603.805	30196.298
603.933	30416.681
604.062	30537.426
604.190	30627.298
604.318	30918.021
604.446	30973.149
604.574	31191.319
604.702	31312.574
604.830	31435.596
604.958	31508.681
605.087	31685.787
605.215	31805.277
605.343	31953.617
605.471	32116.489
605.599	32222.723
605.727	32319.809
605.855	32413.851
605.983	32593.489
606.112	32660.511
606.240	32734.021
606.368	32747.064
606.496	33061.766
606.624	32944.532
606.752	33080.128
606.880	33239.574
607.008	33313.660
607.137	33369.553
607.265	33245.149
607.393	33370.447
607.521	33550.979
607.649	33414.106
607.777	33394.170
607.905	33427.957
608.033	33521.872
608.162	33557.064
608.290	33562.106
608.418	33582.915
608.546	33574.596
608.674	33615.489
608.802	33621.702
608.930	33610.213
609.058	33767.319
609.187	33852.596
609.315	33800.298
609.443	33851.660
609.571	33882.234
609.699	33794.298
609.827	33962.085
609.955	33812.149
610.083	33846.532
610.212	33928.340
610.340	33974.894
610.468	34016.170
610.596	34071.064
610.724	34179.979
610.852	34115.000
610.980	34238.915
611.108	34222.511
611.237	34280.170
611.365	34328.426
611.493	34324.872
611.621	34549.340
611.749	34653.894
611.877	34793.681
612.005	34773.170
612.133	34872.766
612.262	34969.809
612.390	35100.128
612.518	35223.404
612.646	35405.383
612.774	35477.170
612.902	35630.170
613.030	35832.553
613.158	35991.936
613.287	36074.872
613.415	36095.766
613.543	36078.447
613.671	36220.936
613.799	36362.574
613.927	36302.596
614.055	36530.723
614.183	36722.191
614.312	36703.809
614.440	36929.553
614.568	36975.979
614.696	37161.574
614.824	37414.787
614.952	37447.489
615.080	37575.979
615.208	37752.723
615.337	37916.298
615.465	38025.957
615.593	38384.170
615.721	38480.085
615.849	38743.106
615.977	38772.957
616.105	38878.234
616.233	38831.745
616.362	38942.128
616.490	39056.702
616.618	39253.106
616.746	39329.532
616.874	39464.936
617.002	39425.234
617.130	39574.213
617.258	39796.574
617.387	39753.255
617.515	39750.234
617.643	39974.021
617.771	39865.319
617.899	40035.681
618.027	40130.766
618.155	40223.298
618.283	40348.106
618.412	40404.979
618.540	40531.936
618.668	40499.809
618.796	40767.085
618.924	40792.915
619.052	40775.809
619.180	40987.574
619.308	40896.511
619.437	40964.255
619.565	41012.213
619.693	41029.766
619.821	41158.383
619.949	41234.106
620.077	41319.511
620.205	41401.638
620.333	41460.957
620.462	41596.745
620.590	41579.511
620.718	41587.383
620.846	41621.213
620.974	41721.043
621.102	41784.638
621.230	41906.021
621.358	41962.426
621.487	41918.787
621.615	42014.957
621.743	42079.383
621.871	42118.277
621.999	42218.149
622.127	42234.809
622.255	42344.617
622.383	42303.596
622.512	42438.383
622.640	42513.638
622.768	42336.532
622.896	42400.745
623.024	42530.213
623.152	42572.830
623.280	42619.404
623.408	42567.702
623.537	42656.851
623.665	42737.468
623.793	42780.766
623.921	42684.702
624.049	42778.617
624.177	42855.447
624.305	42908.532
624.433	42839.851
624.562	42990.553
624.690	42989.234
624.818	43044.191
624.946	43175.277
625.074	43038.851
625.202	42985.340
625.330	43029.617
625.458	43092.213
625.587	43204.021
625.715	43180.191
625.843	43302.766
625.971	43211.809
626.099	43272.277
626.227	43340.830
626.355	43254.000
626.483	43434.170
626.612	43433.681
626.740	43450.191
626.868	43566.915
626.996	43632.298
627.124	43659.255
627.252	43725.128
627.380	43807.766
627.508	43853.404
627.637	43797.787
627.765	43935.106
627.893	44147.851
628.021	44149.979
628.149	44470.362
628.277	44575.574
628.405	44651.872
628.533	44472.872
628.662	44540.489
628.790	44623.894
628.918	44674.489
629.046	44811.447
629.174	45054.128
629.302	45410.915
629.430	45426.596
629.558	45341.149
629.687	45284.149
629.815	45443.191
629.943	45521.766
630.071	45655.021
630.199	45747.298
630.327	45870.830
630.455	46050.149
630.583	46064.660
630.712	46044.745
630.840	46193.574
630.968	46234.064
631.096	46293.362
631.224	46359.872
631.352	46379.851
631.480	46546.191
631.608	46634.957
631.737	46711.830
631.865	46876.149
631.993	46739.894
632.121	46924.809
632.249	46934.936
632.377	46891.000
632.505	46971.319
632.633	46821.234
632.762	46864.574
632.890	47004.064
633.018	46907.255
633.146	47198.170
633.274	46979.915
633.402	47089.000
633.530	47066.064
633.658	47139.043
633.787	46943.979
633.915	46976.787
634.043	46946.638
634.171	47071.234
634.299	46928.383
634.427	46997.511
634.555	46894.128
634.683	46839.872
634.812	46815.362
634.940	46813.511
635.068	46803.191
635.196	46788.894
635.324	46795.787
635.452	46626.106
635.580	46571.681
635.708	46538.234
635.837	46514.021
635.965	46411.553
636.093	46311.936
636.221	46468.681
636.349	46412.702
636.477	46207.809
636.605	46328.489
636.733	46112.106
636.862	46138.766
636.990	46041.340
637.118	46002.596
637.246	45980.660
637.374	45957.404
637.502	45935.511
637.630	45743.277
637.758	45736.979
637.887	45778.638
638.015	45697.809
638.143	45708.596
638.271	45591.766
638.399	45570.809
638.527	45576.383
638.655	45515.000
638.783	45597.936
638.912	45548.340
639.040	45497.000
639.168	45454.404
639.296	45439.979
639.424	45590.064
639.552	45440.021
639.680	45511.255
639.808	45430.532
639.937	45388.638
640.065	45424.191
640.193	45503.043
640.321	45343.830
640.449	45408.809
640.577	45461.277
640.705	45387.404
640.833	45437.745
640.962	45288.426
641.090	45336.809
641.218	45329.085
641.346	45451.957
641.474	45407.298
641.602	45320.702
641.730	45473.255
641.858	45450.766
641.987	45505.404
642.115	45442.234
642.243	45507.638
642.371	45425.681
642.499	45472.319
642.627	45614.128
642.755	45606.745
642.883	45589.702
643.012	45564.894
643.140	45576.532
643.268	45577.830
643.396	45543.213
643.524	45706.957
643.652	45739.447
643.780	45658.404
643.908	45651.298
644.037	45744.000
644.165	45611.149
644.293	45570.085
644.421	45708.383
644.549	45662.830
644.677	45607.383
644.805	45594.574
644.933	45467.872
645.062	45546.128
645.190	45535.894
645.318	45529.638
645.446	45417.574
645.574	45508.596
645.702	45477.617
645.830	45524.830
645.958	45333.383
646.087	45515.915
646.215	45054.191
646.343	45453.170
646.471	45158.362
646.599	45228.702
646.727	44982.894
646.855	44963.000
646.983	44972.064
647.112	44850.809
647.240	44895.511
647.368	44817.936
647.496	44719.617
647.624	44597.404
647.752	44502.830
647.880	44493.553
648.008	44327.830
648.137	44345.979
648.265	44204.149
648.393	44201.468
648.521	44129.170
648.649	43964.660
648.777	43900.319
648.905	43782.319
649.033	43556.553
649.162	43587.426
649.290	43507.170
649.418	43334.000
649.546	43369.106
649.674	43341.255
649.802	43101.043
649.930	43178.596
650.058	42941.447
650.187	42787.340
650.315	42796.340
650.443	42674.936
650.571	42611.617
650.699	42519.447
650.827	42411.830
650.955	42369.723
651.083	42212.468
651.212	42152.383
651.340	42127.979
651.468	41986.532
651.596	41837.043
651.724	41779.064
651.852	41725.851
651.980	41545.532
652.108	41472.851
652.237	41421.660
652.365	41317.872
652.493	41241.298
652.621	41207.957
652.749	41179.277
652.877	40910.894
653.005	40800.340
653.133	40825.383
653.262	40786.596
653.390	40711.894
653.518	40666.426
653.646	40551.043
653.774	40528.766
653.902	40243.170
654.030	40261.574
654.158	40055.915
654.287	40080.170
654.415	39915.638
654.543	39887.426
654.671	39717.043
654.799	39775.851
654.927	39579.872
655.055	39441.745
655.183	39303.255
655.312	39296.340
655.440	39158.872
655.568	39045.745
655.696	39014.128
655.824	39031.809
655.952	38770.404
656.080	38730.574
656.208	38671.064
656.337	38365.149
656.465	38397.000
656.593	38277.340
656.721	38074.191
656.849	37943.723
656.977	37805.085
657.105	37766.723
657.233	37572.979
657.362	37517.234
657.490	37323.468
657.618	37235.404
657.746	37228.170
657.874	37065.447
658.002	36919.702
658.130	36750.723
658.258	36599.915
658.387	36537.872
658.515	36379.681
658.643	36328.745
658.771	36255.468
658.899	36123.085
659.027	36042.064
659.155	35944.170
659.283	35990.723
659.412	35673.362
659.540	35645.106
659.668	35427.617
659.796	35381.043
659.924	35326.128
660.052	35086.894
660.180	35002.702
660.308	35012.745
660.437	34852.106
660.565	34811.362
660.693	34741.660
660.821	34586.979
660.949	34510.021
661.077	34432.447
661.205	34259.447
661.333	34142.383
661.462	34140.106
661.590	34083.234
661.718	34026.511
661.846	33859.617
661.974	33793.298
662.102	33631.468
662.230	33540.085
662.358	33510.043
662.487	33443.957
662.615	33336.191
662.743	33254.447
662.871	33173.255
662.999	33145.426
663.127	32887.000
663.255	32910.532
663.383	32892.489
663.512	32794.085
663.640	32771.319
663.768	32665.255
663.896	32674.617
664.024	32662.660
664.152	32556.574
664.280	32561.660
664.408	32517.362
664.537	32428.043
664.665	32404.894
664.793	32235.681
664.921	32189.319
665.049	32215.404
665.177	32001.957
665.305	32001.574
665.433	31873.426
665.562	31840.766
665.690	31877.468
665.818	31899.681
665.946	31729.745
666.074	31603.723
666.202	31556.383
666.330	31527.085
666.458	31451.511
666.587	31358.830
666.715	31370.979
666.843	31266.043
666.971	31177.170
667.099	31145.298
667.227	31094.787
667.355	30977.723
667.483	30917.404
667.612	30793.553
667.740	30843.532
667.868	30795.213
667.996	30674.511
668.124	30558.000
668.252	30486.979
668.380	30452.532
668.508	30373.298
668.637	30361.468
668.765	30212.043
668.893	30070.277
669.021	30043.404
669.149	29937.000
669.277	29918.851
669.405	29736.447
669.533	29630.979
669.662	29890.638
669.790	29554.489
669.918	29458.043
670.046	29363.170
670.174	29262.936
670.302	29210.511
670.430	28992.128
670.558	28912.532
670.687	28775.106
670.815	28798.043
670.943	28630.170
671.071	28515.234
671.199	28436.596
671.327	28322.362
671.455	28160.915
671.583	28086.617
671.712	28142.085
671.840	27990.830
671.968	27705.064
672.096	27670.043
672.224	27537.085
672.352	27574.553
672.480	27292.213
672.608	27178.511
672.737	26985.426
672.865	27090.383
672.993	26744.574
673.121	26636.915
673.249	26520.553
673.377	26409.553
673.505	26218.149
673.633	26133.915
673.762	25939.787
673.890	25822.511
674.018	26058.553
674.146	25738.915
674.274	25557.234
674.402	25622.723
674.530	25356.234
674.658	25198.702
674.787	25122.468
674.915	24999.191
675.043	24899.149
675.171	24771.638
675.299	24669.489
675.427	24516.617
675.555	24402.596
675.683	24340.170
675.812	24168.277
675.940	24079.000
676.068	23965.511
676.196	23860.468
676.324	23775.638
676.452	23641.191
676.580	23464.064
676.708	23377.830
676.837	23366.404
676.965	23180.447
677.093	23068.596
677.221	22971.851
677.349	22920.447
677.477	22867.596
677.605	22701.000
677.733	22686.553
677.862	22423.298
677.990	22337.362
678.118	22202.574
678.246	22195.170
678.374	22158.489
678.502	21900.872
678.630	21871.936
678.758	21802.021
678.887	21692.340
679.015	21572.277
679.143	21459.489
679.271	21389.149
679.399	21388.340
679.527	21210.000
679.655	21156.191
679.783	21095.106
679.912	21017.191
680.040	20944.319
680.168	20774.447
680.296	20751.213
680.424	20635.553
680.552	20585.532
680.680	20609.085
680.808	20479.766
680.937	20368.596
681.065	20285.617
681.193	20215.596
681.321	20163.021
681.449	20028.532
681.577	20034.511
681.705	19997.468
681.833	19909.915
681.962	19815.660
682.090	19869.936
682.218	19724.000
682.346	19581.383
682.474	19551.638
682.602	19441.660
682.730	19529.936
682.858	19369.638
682.987	19452.979
683.115	19338.213
683.243	19237.809
683.371	19129.553
683.499	19173.213
683.627	19092.894
683.755	19097.830
683.883	19145.128
684.012	18929.468
684.140	18807.277
684.268	18812.426
684.396	18726.043
684.524	18721.000
684.652	18677.064
684.780	18620.809
684.908	18572.234
685.037	18476.000
685.165	18386.532
685.293	18321.489
685.421	18403.085
685.549	18171.957
685.677	18143.830
685.805	18223.489
685.933	18116.553
686.062	17951.319
686.190	17924.468
686.318	17937.319
686.446	17859.979
686.574	17790.383
686.702	17793.915
686.830	17612.745
686.958	17549.021
687.087	17579.064
687.215	17479.702
687.343	17417.830
687.471	17342.745
687.599	17232.277
687.727	17392.064
687.855	17165.915
687.983	17111.383
688.112	17137.787
688.240	16985.043
688.368	16931.745
688.496	16843.149
688.624	16813.319
688.752	16721.979
688.880	16629.532
689.008	16617.043
689.137	16504.298
689.265	16411.894
689.393	16398.574
689.521	16283.553
689.649	16298.234
689.777	16180.979
689.905	16126.021
690.033	16090.000
690.162	16045.085
690.290	15920.426
690.418	15865.596
690.546	15903.362
690.674	15829.149
690.802	15662.681
690.930	15658.851
691.058	15531.787
691.187	15473.383
691.315	15421.617
691.443	15414.277
691.571	15240.043
691.699	15261.468
691.827	15201.106
691.955	15097.043
692.083	15037.638
692.212	15078.809
692.340	14925.830
692.468	14851.319
692.596	14780.000
692.724	14865.383
692.852	14678.851
692.980	14672.936
693.108	14587.298
693.237	14462.489
693.365	14379.936
693.493	14275.319
693.621	14272.106
693.749	14181.106
693.877	14182.936
694.005	14227.574
694.133	14033.426
694.262	13979.936
694.390	13919.426
694.518	13914.957
694.646	13767.426
694.774	13730.021
694.902	13837.936
695.030	13725.106
695.158	13541.979
695.287	13508.809
695.415	13520.298
695.543	13401.532
695.671	13462.106
695.799	13318.170
695.927	13273.787
696.055	13170.979
696.183	13071.638
696.312	13055.787
696.440	13170.702
696.568	13094.319
696.696	13052.383
696.824	12889.638
696.952	12852.766
697.080	12757.298
697.208	12669.915
697.337	12692.340
697.465	12589.404
697.593	12532.787
697.721	12499.936
697.849	12428.426
697.977	12367.213
698.105	12357.468
698.233	12214.702
698.362	12237.489
698.490	12170.830
698.618	12114.745
698.746	12134.596
698.874	12035.000
699.002	12221.106
699.130	11934.319
699.258	11882.149
699.387	11736.872
699.515	11777.213
699.643	11676.638
699.771	11758.128
699.899	11606.340
700.027	11566.447
700.155	11487.979
700.283	11471.787
700.412	11441.447
700.540	11342.489
700.668	11296.213
700.796	11188.191
700.924	11156.638
701.052	11069.830
701.180	11210.340
701.308	11010.043
701.437	10910.489
701.565	10886.468
701.693	10790.532
701.821	10762.915
701.949	10736.787
702.077	10661.340
702.205	10574.915
702.333	10574.213
702.462	10467.319
702.590	10459.277
702.718	10370.021
702.846	10332.851
702.974	10272.085
703.102	10177.745
703.230	10247.000
703.358	10101.255
703.487	10042.532
703.615	10131.617
703.743	9928.021
703.871	9871.489
703.999	9867.617
704.127	9870.213
704.255	9620.319
704.383	9787.085
704.512	9585.447
704.640	9557.660
704.768	9400.489
704.896	9439.362
705.024	9338.957
705.152	9416.957
705.280	9233.596
705.408	9175.340
705.537	9150.213
705.665	9058.872
705.793	8955.574
705.921	8971.745
706.049	8946.915
706.177	8822.106
706.305	8849.787
706.433	8887.681
706.562	8725.574
706.690	8614.723
706.818	8613.574
706.946	8773.106
707.074	8529.766
707.202	8495.106
707.330	8460.021
707.458	8366.489
707.587	8311.787
707.715	8267.021
707.843	8299.468
707.971	8239.723
708.099	8251.128
708.227	8102.681
708.355	8049.319
708.483	8023.234
708.612	7981.383
708.740	7976.404
708.868	7976.426
708.996	7931.340
709.124	7921.766
709.252	7802.851
709.380	7719.043
709.508	7775.085
709.637	7687.532
709.765	7660.532
709.893	7624.426
710.021	7606.447
710.149	7538.128
710.277	7593.106
710.405	7450.660
710.533	7470.723
710.662	7415.745
710.790	7398.000
710.918	7374.511
711.046	7353.191
711.174	7250.340
711.302	7291.468
711.430	7295.723
711.558	7160.255
711.687	7151.191
711.815	7167.723
711.943	7102.851
712.071	7079.170
712.199	7064.532
712.327	7038.872
712.455	6960.851
712.583	6979.809
712.712	6882.043
712.840	6907.000
712.968	6869.426
713.096	6882.830
713.224	6778.723
713.352	6791.596
713.480	6724.234
713.608	6745.596
713.737	6718.234
713.865	6688.936
713.993	6699.277
714.121	6602.511
714.249	6589.426
714.377	6659.809
714.505	6545.362
714.633	6699.298
714.762	6531.064
714.890	6422.511
715.018	6485.830
715.146	6492.511
715.274	6451.702
715.402	6576.766
715.530	6431.957
715.658	6295.681
715.787	6302.723
715.915	6436.426
716.043	6259.447
716.171	6305.851
716.299	6292.149
716.427	6175.809
716.555	6176.787
716.683	6148.723
716.812	6114.638
716.940	6132.787
717.068	5998.872
717.196	6185.660
717.324	6147.681
717.452	5979.106
717.580	5945.447
717.708	5942.936
717.837	5970.404
717.965	5860.787
718.093	5880.851
718.221	5797.957
718.349	5856.149
718.477	5800.723
718.605	5802.213
718.733	5745.660
718.862	5731.511
718.990	5670.362
719.118	5647.787
719.246	5578.064
719.374	5708.851
719.502	5623.191
719.630	5731.085
719.758	5484.809
719.887	5478.553
720.015	5677.085
720.143	5399.745
720.271	5373.468
720.399	5409.809
720.527	5425.468
720.655	5421.234
720.783	5382.553
720.912	5269.319
721.040	5258.681
721.168	5219.532
721.296	5256.234
721.424	5188.404
721.552	5071.213
721.680	5100.170
721.808	5103.447
721.937	5057.617
722.065	5137.915
722.193	5138.596
722.321	4987.426
722.449	4946.170
722.577	4940.660
722.705	4886.787
722.833	4919.638
722.962	4926.851
723.090	4802.319
723.218	4767.830
723.346	4783.170
723.474	4691.468
723.602	4852.702
723.730	4733.298
723.858	4850.617
723.987	4700.574
724.115	4730.255
724.243	4612.021
724.371	4614.723
724.499	4639.447
724.627	4509.426
724.755	4487.957
724.883	4506.362
725.012	4454.851
725.140	4486.000
725.268	4426.511
725.396	4336.277
725.524	4347.617
725.652	4367.766
725.780	4333.596
725.908	4361.574
726.037	4426.426
726.165	4254.426
726.293	4201.915
726.421	4209.404
726.549	4153.277
726.677	4149.511
726.805	4134.915
726.933	4095.128
727.062	4087.149
727.190	4076.468
727.318	3990.511
727.446	4029.000
727.574	4001.787
727.702	4100.128
727.830	3950.957
727.958	4006.319
728.087	3924.979
728.215	4009.957
728.343	3971.404
728.471	3856.298
728.599	3827.787
728.727	3943.255
728.855	3807.277
728.983	3799.191
729.112	3776.957
729.240	3747.404
729.368	3748.638
729.496	3762.936
729.624	3718.149
729.752	3667.979
729.880	3679.489
730.008	3672.298
730.137	3629.766
730.265	3796.489
730.393	3568.787
730.521	3676.234
730.649	3565.319
730.777	3563.511
730.905	3533.255
731.033	3628.936
731.162	3738.319
731.290	3600.298
731.418	3728.574
731.546	3678.340
731.674	3546.787
731.802	3538.957
731.930	3422.043
732.058	3384.702
732.187	3378.128
732.315	3369.872
732.443	3362.191
732.571	3528.085
732.699	3403.149
732.827	3383.319
732.955	3297.830
733.083	3257.447
733.212	3352.426
733.340	3329.362
733.468	3364.787
733.596	3224.447
733.724	3217.298
733.852	3206.319
733.980	3194.404
734.108	3374.957
734.237	3295.468
734.365	3274.723
734.493	3168.489
734.621	3101.702
734.749	3142.638
734.877	3142.553
735.005	3168.766
735.133	3169.064
735.262	3161.872
735.390	3043.106
735.518	3224.851
735.646	2990.340
735.774	3005.574
735.902	3018.574
736.030	2951.809
736.158	3041.213
736.287	2915.745
736.415	3165.213
736.543	2944.979
736.671	2896.915
736.799	2908.596
736.927	2969.809
737.055	2904.851
737.183	2996.234
737.312	2971.596
737.440	2906.319
737.568	2892.255
737.696	2826.745
737.824	2886.383
737.952	2872.426
738.080	2819.447
738.208	2829.149
738.337	2823.638
738.465	2818.574
738.593	2735.894
738.721	2714.617
738.849	2754.489
738.977	2732.298
739.105	2763.787
739.233	2702.085
739.362	2714.000
739.490	2597.532
739.618	2630.106
739.746	2617.511
739.874	2843.298
740.002	2736.234
740.130	2695.872
740.258	2605.319
740.387	2549.745
740.515	2698.979
740.643	2570.936
740.771	2576.213
740.899	2591.745
741.027	2621.021
741.155	2673.085
741.283	2511.255
741.412	2527.894
741.540	2552.638
741.668	2585.702
741.796	2633.638
741.924	2575.404
742.052	2492.149
742.180	2580.085
742.308	2517.426
742.437	2517.851
742.565	2551.255
742.693	2572.915
742.821	2482.787
742.949	2532.553
743.077	2494.787
743.205	2479.191
743.333	2464.681
743.462	2456.745
743.590	2473.000
743.718	2423.553
743.846	2434.340
743.974	2437.000
744.102	2428.915
744.230	2428.043
744.358	2381.319
744.487	2386.468
744.615	2404.128
744.743	2382.149
744.871	2351.170
744.999	2397.085
745.127	2331.596
745.255	2326.511
745.383	2343.660
745.512	2346.723
745.640	2289.660
745.768	2301.915
745.896	2299.702
746.024	2292.681
746.152	2272.745
746.280	2268.957
746.408	2249.723
746.537	2217.702
746.665	2249.085
746.793	2223.830
746.921	2211.957
747.049	2214.213
747.177	2203.043
747.305	2193.298
747.433	2224.106
747.562	2175.596
747.690	2170.383
747.818	2178.532
747.946	2166.851
748.074	2254.468
748.202	2168.574
748.330	2130.532
748.458	2139.106
748.587	2105.915
748.715	2081.851
748.843	2101.574
748.971	2091.787
749.099	2072.787
749.227	2104.277
749.355	2065.404
749.483	2084.383
749.612	2062.383
749.740	2031.489
749.868	2036.830
749.996	2023.894
750.124	2007.021
750.252	2018.043
750.380	2016.404
750.508	1988.872
750.637	1965.213
750.765	1992.957
750.893	1945.532
751.021	2007.681
751.149	1955.447
751.277	1997.170
751.405	1989.702
751.533	2000.723
751.662	1912.915
751.790	1965.702
751.918	1914.426
752.046	1914.298
752.174	1900.745
752.302	1941.723
752.430	1898.128
752.558	1858.553
752.687	1857.702
752.815	1855.936
752.943	1826.106
753.071	1815.255
753.199	1846.085
753.327	1846.362
753.455	1800.000
753.583	1780.872
753.712	1797.319
753.840	1780.745
753.968	1770.957
754.096	1759.809
754.224	1736.085
754.352	1746.957
754.480	1734.489
754.608	1730.362
754.737	1739.638
754.865	1772.149
754.993	1712.894
755.121	1684.638
755.249	1768.511
755.377	1688.426
755.505	1677.255
755.633	1721.723
755.762	1651.362
755.890	1730.213
756.018	1707.277
756.146	1648.489
756.274	1632.319
756.402	1641.872
756.530	1612.277
756.658	1636.851
756.787	1615.553
756.915	1572.170
757.043	1602.383
757.171	1584.574
757.299	1597.064
757.427	1560.894
757.555	1559.766
757.683	1602.383
757.812	1529.532
757.940	1541.298
758.068	1512.255
758.196	1518.213
758.324	1498.574
758.452	1608.213
758.580	1496.362
758.708	1512.064
758.837	1489.830
758.965	1568.681
759.093	1465.553
759.221	1439.064
759.349	1439.574
759.477	1440.936
759.605	1424.851
759.733	1422.489
759.862	1421.574
759.990	1403.000
760.118	1408.043
760.246	1385.532
760.374	1409.809
760.502	1395.723
760.630	1389.043
760.758	1367.553
760.887	1337.170
761.015	1357.596
761.143	1341.000
761.271	1345.979
761.399	1316.979
761.527	1314.426
761.655	1330.915
761.783	1302.660
761.912	1299.894
762.040	1282.766
762.168	1311.894
762.296	1270.553
762.424	1276.532
762.552	1265.468
762.680	1325.809
762.808	1255.298
762.937	1258.255
763.065	1302.106
763.193	1289.298
763.321	1246.596
763.449	1209.872
763.577	1233.681
763.705	1207.447
763.833	1291.787
763.962	1194.277
764.090	1185.660
764.218	1188.362
764.346	1203.447
764.474	1162.000
764.602	1172.149
764.730	1162.000
764.858	1181.681
764.987	1160.872
765.115	1201.021
765.243	1137.128
765.371	1118.894
765.499	1096.000
765.627	1115.064
765.755	1100.043
765.883	1127.319
766.012	1131.447
766.140	1088.766
766.268	1104.532
766.396	1077.340
766.524	1088.340
766.652	1080.830
766.780	1079.170
766.908	1084.574
767.037	1069.979
767.165	1078.787
767.293	1123.894
767.421	1056.234
767.549	1057.106
767.677	1060.064
767.805	1028.553
767.933	1057.319
768.062	1051.404
768.190	1041.809
768.318	1009.809
768.446	1037.468
768.574	1055.915
768.702	1037.106
768.830	999.489
768.958	999.979
769.087	981.787
769.215	989.298
769.343	1005.043
769.471	967.681
769.599	1023.468
769.727	990.106
769.855	989.255
769.983	958.234
770.112	954.511
770.240	961.957
770.368	966.170
770.496	933.596
770.624	940.149
770.752	960.872
770.880	976.255
771.008	953.085
771.137	938.787
771.265	990.298
771.393	950.340
771.521	946.149
771.649	918.894
771.777	935.723
771.905	924.106
772.033	918.915
772.162	948.362
772.290	919.830
772.418	963.277
772.546	925.617
772.674	909.851
772.802	922.809
772.930	948.000
773.058	882.383
773.187	892.936
773.315	887.191
773.443	899.596
773.571	877.255
773.699	887.085
773.827	868.149
773.955	909.979
774.083	895.128
774.212	878.149
774.340	893.745
774.468	864.830
774.596	865.085
774.724	870.170
774.852	864.915
774.980	856.319
775.108	846.277
775.237	871.298
775.365	865.340
775.493	840.702
775.621	844.638
775.749	844.936
775.877	833.149
776.005	843.681
776.133	855.638
776.262	851.702
776.390	816.085
776.518	859.702
776.646	813.723
776.774	826.255
776.902	820.170
777.030	824.979
777.158	821.170
777.287	832.702
777.415	790.191
777.543	794.702
777.671	792.872
777.799	778.617
777.927	793.681
778.055	808.851
778.183	788.553
778.312	764.936
778.440	769.745
778.568	778.362
778.696	773.660
778.824	785.851
778.952	779.766
779.080	752.426
779.208	793.660
779.337	769.915
779.465	766.936
779.593	754.426
779.721	775.787
779.849	760.213
779.977	740.340
780.105	720.383
780.233	758.957
780.362	766.489
780.490	773.660
780.618	723.021
780.746	734.723
780.874	720.574
781.002	724.936
781.130	710.723
781.258	709.894
781.387	711.362
781.515	724.404
781.643	713.319
781.771	740.489
781.899	701.596
782.027	749.830
782.155	717.745
782.283	705.894
782.412	687.830
782.540	697.149
782.668	732.340
782.796	674.745
782.924	708.170
783.052	665.979
783.180	713.362
783.308	659.319
783.437	680.574
783.565	675.043
783.693	677.766
783.821	665.064
783.949	659.255
784.077	685.660
784.205	660.574
784.333	698.319
784.462	635.319
784.590	661.319
784.718	657.213
784.846	642.830
784.974	668.000
785.102	685.936
785.230	647.128
785.358	685.979
785.487	639.085
785.615	647.979
785.743	627.213
785.871	624.234
785.999	616.489
786.127	614.574
786.255	646.000
786.383	653.702
786.512	641.787
786.640	630.511
786.768	630.191
786.896	611.979
787.024	615.532
787.152	615.234
787.280	612.681
787.408	600.277
787.537	626.043
787.665	605.426
787.793	628.021
787.921	611.298
788.049	607.894
788.177	587.596
788.305	580.660
788.433	617.957
788.562	579.426
788.690	584.128
788.818	590.979
788.946	600.234
789.074	568.021
789.202	596.894
789.330	593.660
789.458	571.638
789.587	624.319
789.715	579.915
789.843	579.979
789.971	570.340
790.099	560.149
790.227	569.979
790.355	563.362
790.483	584.000
790.612	561.617
790.740	555.574
790.868	568.170
790.996	558.511
791.124	552.553
791.252	547.277
791.380	564.574
791.508	561.255
791.637	547.106
791.765	534.809
791.893	540.723
792.021	542.851
792.149	540.915
792.277	548.723
792.405	518.809
792.533	549.617
792.662	508.021
792.790	532.383
792.918	545.021
793.046	527.596
793.174	539.362
793.302	521.702
793.430	537.830
793.558	517.128
793.687	521.128
793.815	516.702
793.943	532.426
794.071	531.298
794.199	517.617
794.327	521.043
794.455	580.468
794.583	606.447
794.712	502.170
794.840	507.234
794.968	510.170
795.096	532.149
795.224	491.766
795.352	495.638
795.480	535.596
795.608	506.234
795.737	497.702
795.865	496.213
795.993	484.660
796.121	469.830
796.249	490.128
796.377	498.277
796.505	481.426
796.633	469.979
796.762	473.319
796.890	482.340
797.018	500.979
797.146	471.787
797.274	462.851
797.402	477.149
797.530	480.064
797.658	461.766
797.787	517.128
797.915	460.319
798.043	478.511
798.171	458.766
798.299	461.638
798.427	449.447
798.555	464.957
798.683	439.043
798.812	454.745
798.940	515.191
799.068	449.936
799.196	484.830
799.324	446.574
799.452	454.638
799.580	428.851
799.708	501.021
799.837	427.894
799.965	442.404
800.093	454.234
800.221	414.681
800.349	434.511
800.477	435.298
800.605	436.213
800.733	450.660
800.862	436.915
800.990	461.511
801.118	410.298
801.246	415.702
801.374	436.660
801.502	425.745
801.630	405.830
801.758	421.404
801.887	433.745
802.015	412.255
802.143	403.426
802.271	439.532
802.399	423.511
802.527	404.723
802.655	439.936
802.783	458.957
802.912	412.681
803.040	403.957
803.168	392.021
803.296	391.383
803.424	416.255
803.552	395.787
803.680	395.617
803.808	400.468
803.937	401.255
804.065	392.404
804.193	387.851
804.321	446.447
804.449	384.085
804.577	385.128
804.705	391.064
804.833	427.255
804.962	383.128
805.090	390.064
805.218	400.574
805.346	395.000
805.474	395.851
805.602	404.340
805.730	385.936
805.858	363.851
805.987	383.021
806.115	389.298
806.243	386.340
806.371	406.213
806.499	479.745
806.627	508.191
806.755	480.404
806.883	391.660
807.012	364.085
807.140	391.851
807.268	380.085
807.396	389.532
807.524	359.277
807.652	366.511
807.780	423.447
807.908	356.894
808.037	415.128
808.165	388.170
808.293	376.851
808.421	414.298
808.549	353.489
808.677	360.702
808.805	406.340
808.933	372.191
809.062	389.979
809.190	413.936
809.318	366.489
809.446	358.489
809.574	420.872
809.702	345.043
809.830	368.596
809.958	363.957
810.087	351.638
810.215	375.234
810.343	364.766
810.471	369.723
810.599	343.660
810.727	348.447
810.855	341.149
810.983	338.702
811.112	357.723
811.240	345.915
811.368	357.128
811.496	391.660
811.624	359.106
811.752	345.702
811.880	354.596
812.008	336.617
812.137	361.298
812.265	324.170
812.393	355.511
812.521	366.064
812.649	342.362
812.777	335.511
812.905	370.979
813.033	327.234
813.162	329.574
813.290	337.362
813.418	343.426
813.546	330.872
813.674	334.553
813.802	340.979
813.930	320.362
814.058	322.851
814.187	336.234
814.315	327.064
814.443	348.809
814.571	342.638
814.699	360.702
814.827	331.277
814.955	325.447
815.083	360.936
815.212	350.851
815.340	365.596
815.468	318.106
815.596	329.170
815.724	330.787
815.852	319.319
815.980	323.915
816.108	319.766
816.237	318.043
816.365	334.191
816.493	330.638
816.621	322.043
816.749	331.596
816.877	326.638
817.005	338.447
817.133	328.447
817.262	309.745
817.390	320.660
817.518	316.149
817.646	327.617
817.774	310.660
817.902	306.894
818.030	308.021
818.158	354.277
818.287	327.106
818.415	302.319
818.543	314.574
818.671	329.787
818.799	308.064
818.927	322.723
819.055	320.745
819.183	309.298
819.312	317.000
819.440	308.106
819.568	302.553
819.696	314.766
819.824	329.255
819.952	305.340
820.080	315.149
820.208	306.532
820.337	298.128
820.465	333.319
820.593	303.213
820.721	305.489
820.849	310.298
820.977	301.660
821.105	310.851
821.233	283.872
821.362	322.468
821.490	293.553
821.618	299.489
821.746	295.170
821.874	301.170
822.002	296.574
822.130	298.617
822.258	282.872
822.387	286.638
822.515	307.489
822.643	301.021
822.771	310.340
822.899	304.234
823.027	337.702
823.155	284.383
823.283	288.383
823.412	293.596
823.540	292.149
823.668	346.638
823.796	288.830
823.924	322.979
824.052	323.660
824.180	305.106
824.308	285.851
824.437	278.043
824.565	287.298
824.693	313.255
824.821	301.766
824.949	292.617
825.077	285.787
825.205	317.021
825.333	303.532
825.462	310.851
825.590	283.489
825.718	304.234
825.846	280.489
825.974	279.723
826.102	284.021
826.230	277.617
826.358	287.277
826.487	279.532
826.615	323.936
826.743	273.617
826.871	305.872
826.999	332.383
827.127	291.745
827.255	287.596
827.383	276.745
827.512	302.489
827.640	276.255
827.768	274.298
827.896	290.617
828.024	284.319
828.152	279.809
828.280	276.574
828.408	273.681
828.537	277.553
828.665	287.064
828.793	280.702
828.921	265.511
829.049	292.213
829.177	270.447
829.305	266.787
829.433	281.596
829.562	283.872
829.690	267.447
829.818	301.915
829.946	278.383
830.074	278.021
830.202	291.957
830.330	292.830
830.458	316.255
830.587	276.638
830.715	273.255
830.843	272.404
830.971	289.574
831.099	295.106
831.227	265.915
831.355	268.085
831.483	286.511
831.612	295.319
831.740	280.106
831.868	275.426
831.996	274.851
832.124	266.106
832.252	254.596
832.380	281.957
832.508	319.426
832.637	264.106
832.765	268.383
832.893	302.638
833.021	268.064
833.149	254.489
833.277	275.511
833.405	272.319
833.533	258.255
833.662	269.170
833.790	261.511
833.918	279.085
834.046	305.723
834.174	271.596
834.302	266.064
834.430	256.128
834.558	273.170
834.687	282.596
834.815	251.106
834.943	271.766
835.071	264.681
835.199	266.702
835.327	285.638
835.455	259.426
835.583	302.106
835.712	252.532
835.840	258.894
835.968	265.340
836.096	310.021
836.224	278.043
836.352	247.277
836.480	268.681
836.608	272.106
836.737	261.128
836.865	258.149
836.993	267.830
837.121	269.298
837.249	252.021
837.377	284.660
837.505	270.128
837.633	254.255
837.762	262.043
837.890	295.702
838.018	291.191
838.146	300.638
838.274	270.915
838.402	281.872
838.530	255.085
838.658	242.979
838.787	266.213
838.915	265.213
839.043	250.255
839.171	278.702
839.299	247.468
839.427	256.872
839.555	257.702
839.683	272.340
839.812	286.277
839.940	249.340
840.068	272.532
840.196	273.149
840.324	255.915
840.452	256.766
840.580	296.489
840.708	258.936
840.837	287.468
840.965	244.553
841.093	257.383
841.221	253.851
841.349	260.149
841.477	267.936
841.605	263.723
841.733	257.830
841.862	259.851
841.990	306.255
842.118	237.426
842.246	253.319
842.374	255.745
842.502	237.277
842.630	272.617
842.758	278.106
842.887	245.149
843.015	256.043
843.143	276.766
843.271	252.383
843.399	295.298
843.527	265.000
843.655	236.426
843.783	257.511
843.912	246.213
844.040	286.319
844.168	245.277
844.296	244.936
844.424	240.681
844.552	266.362
844.680	266.298
844.808	276.383
844.937	251.915
845.065	252.340
845.193	268.170
845.321	249.191
845.449	249.234
845.577	253.574
845.705	245.106
845.833	243.128
845.962	268.702
846.090	249.638
846.218	255.766
846.346	258.851
846.474	264.979
846.602	251.128
846.730	283.021
846.858	272.170
846.987	257.340
847.115	234.128
847.243	271.340
847.371	266.021
847.499	265.191
847.627	250.149
847.755	243.809
847.883	249.787
848.012	259.298
848.140	250.532
848.268	259.468
848.396	236.085
848.524	275.809
848.652	229.000
848.780	251.723
848.908	257.532
849.037	245.191
849.165	259.383
849.293	258.851
849.421	257.149
849.549	254.021
849.677	250.064
849.805	246.979
849.933	251.255
850.062	247.596
850.190	246.064
850.318	257.489
850.446	245.064
850.574	234.319
850.702	248.106
850.830	247.957
850.958	260.681
851.087	231.021
851.215	253.340
851.343	241.404
851.471	247.532
851.599	250.468
851.727	247.766
851.855	297.660
851.983	255.979
852.112	248.128
852.240	239.617
852.368	248.000
852.496	248.638
852.624	245.404
852.752	248.277
852.880	228.255
853.008	245.340
853.137	251.532
853.265	259.468
853.393	245.213
853.521	268.787
853.649	251.638
853.777	238.553
853.905	260.532
854.033	239.447
854.162	298.723
854.290	242.362
854.418	233.553
854.546	242.957
854.674	348.872
854.802	242.298
854.930	237.043
855.058	223.596
855.187	227.213
855.315	270.468
855.443	223.404
855.571	231.213
855.699	232.021
855.827	242.766
855.955	239.723
856.083	244.234
856.212	249.574
856.340	238.809
856.468	285.532
856.596	270.660
856.724	248.596
856.852	246.106
856.980	234.596
857.108	251.745
857.237	225.617
857.365	269.766
857.493	238.043
857.621	225.426
857.749	242.766
857.877	253.681
858.005	252.957
858.133	238.745
858.262	240.000
858.390	233.915
858.518	219.511
858.646	230.979
858.774	236.213
858.902	216.596
859.030	242.043
859.158	243.340
859.287	252.362
859.415	272.851
859.543	225.532
859.671	229.702
859.799	248.468
859.927	244.830
860.055	235.298
860.183	249.553
860.312	239.702
860.440	245.851
860.568	228.851
860.696	224.064
860.824	302.553
860.952	286.617
861.080	239.787
861.208	241.766
861.337	248.702
861.465	271.043
861.593	264.723
861.721	236.106
861.849	239.255
861.977	219.936
862.105	243.745
862.233	266.681
862.362	246.936
862.490	262.149
862.618	223.404
862.746	235.234
862.874	238.447
863.002	232.617
863.130	259.213
863.258	244.702
863.387	250.404
863.515	255.894
863.643	241.894
863.771	310.319
863.899	239.340
864.027	234.191
864.155	228.319
864.283	261.468
864.412	237.255
864.540	230.936
864.668	233.511
864.796	232.532
864.924	238.766
865.052	243.021
865.180	234.340
865.308	211.340
865.437	246.021
865.565	247.957
865.693	268.511
865.821	245.596
865.949	264.213
866.077	243.106
866.205	241.872
866.333	252.936
866.462	233.574
866.590	242.660
866.718	252.234
866.846	227.936
866.974	246.277
867.102	254.511
867.230	273.702
867.358	241.191
867.487	233.064
867.615	258.255
867.743	239.426
867.871	246.234
867.999	245.191
868.127	233.596
868.255	289.553
868.383	281.702
868.512	234.915
868.640	235.809
868.768	228.234
868.896	222.383
869.024	268.191
869.152	240.021
869.280	246.404
869.408	272.234
869.537	224.617
869.665	301.000
869.793	232.234
869.921	269.234
870.049	246.021
870.177	244.489
870.305	279.511
870.433	216.894
870.562	249.617
870.690	221.383
870.818	228.745
870.946	241.787
871.074	272.128
871.202	249.340
871.330	252.915
871.458	219.681
871.587	234.489
871.715	235.426
871.843	228.426
871.971	228.362
872.099	239.532
872.227	228.851
872.355	245.532
872.483	245.383
872.612	247.766
872.740	250.830
872.868	230.915
872.996	240.234
873.124	232.532
873.252	236.064
873.380	231.915
873.508	226.830
873.637	251.149
873.765	232.681
873.893	282.936
874.021	244.234
874.149	228.362
874.277	240.085
874.405	229.277
874.533	236.617
874.662	1144.723
874.790	234.851
874.918	275.957
875.046	259.851
875.174	256.596
875.302	222.809
875.430	270.447
875.558	251.596
875.687	250.000
875.815	239.043
875.943	229.489
876.071	252.787
876.199	262.277
876.327	280.766
876.455	235.043
876.583	257.319
876.712	232.702
876.840	248.085
876.968	278.936
877.096	238.489
877.224	228.851
877.352	286.149
877.480	230.489
877.608	241.191
877.737	245.447
877.865	235.809
877.993	252.170
878.121	218.723
878.249	231.809
878.377	230.766
878.505	238.106
878.633	243.894
878.762	236.468
878.890	227.553
879.018	298.936
879.146	240.617
879.274	225.702
879.402	255.702
879.530	243.511
879.658	224.957
879.787	238.511
879.915	232.021
880.043	264.426
880.171	219.553
880.299	251.957
880.427	245.936
880.555	239.936
880.683	268.340
880.812	229.277
880.940	266.170
881.068	221.234
881.196	232.426
881.324	249.213
881.452	227.340
881.580	260.191
881.708	263.064
881.837	247.766
881.965	244.894
882.093	246.234
882.221	229.085
882.349	265.511
882.477	262.362
882.605	247.723
882.733	230.660
882.862	275.191
882.990	249.617
883.118	238.553
883.246	247.404
883.374	234.830
883.502	231.638
883.630	220.574
883.758	239.638
883.887	246.213
884.015	222.702
884.143	235.489
884.271	253.830
884.399	230.106
884.527	231.383
884.655	216.766
884.783	247.085
884.912	250.681
885.040	231.511
885.168	307.553
885.296	228.936
885.424	241.915
885.552	250.596
885.680	242.936
885.808	233.213
885.937	246.702
886.065	252.340
886.193	224.638
886.321	278.489
886.449	233.447
886.577	271.723
886.705	233.447
886.833	224.872
886.962	226.787
887.090	236.681
887.218	245.000
887.346	253.809
887.474	267.362
887.602	246.021
887.730	244.404
887.858	264.830
887.987	237.298
888.115	275.404
888.243	239.426
888.371	243.787
888.499	229.809
888.627	249.234
888.755	245.170
888.883	232.553
889.012	235.489
889.140	238.021
889.268	256.553
889.396	252.617
889.524	237.532
889.652	229.894
889.780	220.745
889.908	263.383
890.037	224.319
890.165	227.766
890.293	255.468
890.421	288.191
890.549	240.809
890.677	233.362
890.805	222.404
890.933	265.766
891.062	243.340
891.190	233.489
891.318	246.936
891.446	235.191
891.574	229.340
891.702	237.660
891.830	232.213
891.958	272.660
892.087	271.404
892.215	250.085
892.343	252.681
892.471	252.128
892.599	239.809
892.727	255.319
892.855	230.319
892.983	226.851
893.112	238.596
893.240	232.064
893.368	267.489
893.496	237.681
893.624	246.298
893.752	299.915
893.880	273.085
894.008	220.638
894.137	250.128
894.265	249.340
894.393	237.766
894.521	235.340
894.649	268.000
894.777	238.894
894.905	224.979
895.033	264.021
895.162	234.213
895.290	279.468
895.418	255.319
895.546	248.085
895.674	317.319
895.802	229.191
895.930	248.106
896.058	221.489
896.187	228.872
896.315	235.468
896.443	228.043
896.571	236.191
896.699	234.340
896.827	245.149
896.955	255.468
897.083	232.064
897.212	279.511
897.340	234.660
897.468	226.574
897.596	239.021
897.724	282.170
897.852	251.723
897.980	237.128
898.108	242.936
898.237	233.872
898.365	228.809
898.493	246.149
898.621	239.596
898.749	235.362
898.877	244.745
899.005	218.085
899.133	234.766
899.262	249.957
899.390	267.106
899.518	243.170
899.646	238.915
899.774	265.830
899.902	321.383
900.030	249.511
900.158	250.255
900.287	254.043
900.415	221.191
900.543	249.426
900.671	239.830
900.799	270.362
900.927	237.106
901.055	227.170
901.183	243.404
901.312	267.426
901.440	251.936
901.568	248.936
901.696	243.979
901.824	258.766
901.952	249.277
902.080	356.426
902.208	269.809
902.337	235.532
902.465	247.255
902.593	242.043
902.721	247.766
902.849	249.213
902.977	249.149
903.105	242.234
903.233	258.809
903.362	237.277
903.490	249.830
903.618	233.447
903.746	259.489
903.874	228.191
904.002	248.426
904.130	246.553
904.258	254.191
904.387	233.191
904.515	253.596
904.643	222.979
904.771	242.511
904.899	255.830
905.027	272.830
905.155	245.340
905.283	245.447
905.412	268.128
905.540	244.404
905.668	239.106
905.796	236.404
905.924	238.468
906.052	243.277
906.180	267.936
906.308	250.766
906.437	271.489
906.565	248.894
906.693	246.872
906.821	228.191
906.949	244.064
907.077	255.426
907.205	249.426
907.333	251.660
907.462	241.894
907.590	239.936
907.718	263.723
907.846	282.106
907.974	240.617
908.102	247.128
908.230	276.979
908.358	277.766
908.487	256.404
908.615	253.043
908.743	258.277
908.871	303.149
908.999	244.809
909.127	281.638
909.255	234.319
909.383	235.085
909.512	281.021
909.640	249.277
909.768	253.660
909.896	296.511
910.024	267.957
910.152	250.936
910.280	298.745
910.408	246.064
910.537	247.234
910.665	281.936
910.793	257.915
910.921	263.319
911.049	239.574
911.177	236.957
911.305	268.426
911.433	258.021
911.562	249.617
911.690	258.532
911.818	302.383
911.946	247.043
912.074	265.596
912.202	282.745
912.330	251.957
912.458	249.638
912.587	266.894
912.715	279.766
912.843	275.255
912.971	271.426
913.099	293.085
913.227	276.362
913.355	255.681
913.483	269.660
913.612	271.723
913.740	388.511
913.868	267.830
