90pol_70_70_at_750.00nm_cut_at_984.50Y_01.dat
24.04.2023
11:00:52
cut middle at Y: 984.50
top cursor: 1008 down cursor: 961 mean of: 47 lines , 2560 datapoints
wavelength(nm)	intensity[arb. units]
585.996	16760.638
586.124	16246.234
586.252	16170.957
586.380	16196.809
586.508	16237.426
586.637	16318.426
586.765	16436.915
586.893	16445.255
587.021	16429.872
587.149	16525.149
587.277	16560.489
587.405	16594.340
587.533	16535.851
587.662	16748.000
587.790	16663.106
587.918	16617.277
588.046	16670.660
588.174	16591.872
588.302	16725.468
588.430	16674.809
588.558	16654.213
588.687	16729.213
588.815	16699.149
588.943	16690.681
589.071	16680.532
589.199	16747.149
589.327	16729.553
589.455	16687.723
589.583	16814.085
589.712	16782.213
589.840	16766.149
589.968	16764.532
590.096	16778.660
590.224	16800.766
590.352	16795.021
590.480	16800.340
590.608	16769.489
590.737	16883.957
590.865	16910.468
590.993	16825.787
591.121	16833.298
591.249	16872.362
591.377	16872.021
591.505	16914.383
591.633	16919.872
591.762	16917.085
591.890	17074.809
592.018	16970.191
592.146	16967.213
592.274	16971.170
592.402	16985.617
592.530	17025.043
592.658	17274.213
592.787	17089.255
592.915	17308.106
593.043	17182.383
593.171	17240.383
593.299	17253.362
593.427	17309.021
593.555	17373.404
593.683	17400.191
593.812	17476.766
593.940	17492.021
594.068	17553.234
594.196	17682.574
594.324	17666.447
594.452	17629.170
594.580	17732.085
594.708	17820.596
594.837	17754.979
594.965	17867.255
595.093	17963.000
595.221	17919.319
595.349	18097.809
595.477	18081.404
595.605	18023.340
595.733	18065.128
595.862	18351.617
595.990	18167.000
596.118	18278.149
596.246	18437.936
596.374	18305.447
596.502	18404.702
596.630	18373.936
596.758	18387.702
596.887	18368.213
597.015	18463.340
597.143	18522.915
597.271	18484.723
597.399	18569.553
597.527	18463.468
597.655	18577.532
597.783	18515.447
597.912	18591.617
598.040	18584.298
598.168	18631.957
598.296	18606.553
598.424	18590.128
598.552	18596.766
598.680	18553.511
598.808	18696.213
598.937	18653.234
599.065	18552.617
599.193	18561.319
599.321	18581.489
599.449	18561.128
599.577	18512.362
599.705	18597.426
599.833	18598.149
599.962	18631.404
600.090	18604.638
600.218	18678.745
600.346	18743.128
600.474	18669.319
600.602	18704.340
600.730	18777.064
600.858	18803.277
600.987	18921.872
601.115	18827.340
601.243	18944.426
601.371	18946.191
601.499	19053.128
601.627	19112.383
601.755	19153.085
601.883	19284.383
602.012	19273.596
602.140	19301.000
602.268	19472.936
602.396	19425.979
602.524	19611.383
602.652	19539.191
602.780	19676.979
602.908	19718.000
603.037	19779.660
603.165	19841.957
603.293	19978.447
603.421	20034.638
603.549	20163.340
603.677	20250.766
603.805	20275.021
603.933	20341.319
604.062	20515.936
604.190	20533.723
604.318	20654.298
604.446	20702.128
604.574	20711.298
604.702	20854.638
604.830	20911.170
604.958	20986.468
605.087	21150.660
605.215	21240.085
605.343	21152.532
605.471	21288.787
605.599	21379.000
605.727	21369.766
605.855	21482.787
605.983	21479.617
606.112	21556.745
606.240	21563.872
606.368	21625.660
606.496	21827.149
606.624	21611.489
606.752	21767.191
606.880	21870.021
607.008	21884.617
607.137	21844.617
607.265	21727.149
607.393	21786.191
607.521	21802.787
607.649	21817.851
607.777	21715.255
607.905	21761.638
608.033	21718.277
608.162	21755.362
608.290	21719.213
608.418	21730.043
608.546	21728.638
608.674	21729.660
608.802	21714.128
608.930	21659.745
609.058	21694.128
609.187	21727.319
609.315	21755.383
609.443	21724.043
609.571	21706.894
609.699	21739.617
609.827	21758.851
609.955	21674.957
610.083	21689.574
610.212	21698.723
610.340	21712.191
610.468	21788.489
610.596	21775.745
610.724	21795.319
610.852	21772.894
610.980	21837.936
611.108	21840.638
611.237	21823.043
611.365	21875.404
611.493	21872.553
611.621	21965.340
611.749	21948.553
611.877	22092.979
612.005	22039.043
612.133	22165.553
612.262	22231.298
612.390	22214.319
612.518	22258.319
612.646	22431.745
612.774	22334.085
612.902	22482.511
613.030	22631.574
613.158	22746.872
613.287	22716.532
613.415	22730.979
613.543	22725.872
613.671	22685.064
613.799	22855.255
613.927	22705.489
614.055	22762.000
614.183	22999.255
614.312	22946.064
614.440	23066.383
614.568	23009.404
614.696	23116.979
614.824	23330.128
614.952	23172.319
615.080	23250.021
615.208	23305.936
615.337	23480.617
615.465	23563.511
615.593	23694.000
615.721	23833.936
615.849	24012.894
615.977	24004.766
616.105	23979.085
616.233	23903.745
616.362	23984.511
616.490	24068.553
616.618	24111.617
616.746	24146.191
616.874	24225.872
617.002	24154.596
617.130	24222.915
617.258	24380.362
617.387	24327.617
617.515	24389.681
617.643	24358.170
617.771	24414.936
617.899	24474.617
618.027	24422.085
618.155	24587.298
618.283	24484.319
618.412	24567.894
618.540	24699.213
618.668	24642.085
618.796	24580.404
618.924	24774.553
619.052	24696.489
619.180	24772.383
619.308	24873.979
619.437	24809.362
619.565	24776.447
619.693	24786.979
619.821	24786.426
619.949	24795.149
620.077	24966.979
620.205	24897.085
620.333	24970.489
620.462	25032.979
620.590	25001.170
620.718	24932.936
620.846	25011.234
620.974	25037.723
621.102	24992.511
621.230	25005.809
621.358	25204.277
621.487	25004.404
621.615	25069.574
621.743	25214.553
621.871	25171.447
621.999	25238.894
622.127	25140.957
622.255	25141.255
622.383	25174.574
622.512	25082.191
622.640	25256.702
622.768	25123.043
622.896	25167.809
623.024	25127.532
623.152	25249.426
623.280	25179.702
623.408	25127.553
623.537	25162.234
623.665	25186.617
623.793	25133.191
623.921	25203.234
624.049	25097.213
624.177	25146.617
624.305	25161.447
624.433	25183.106
624.562	25187.362
624.690	25124.830
624.818	25249.191
624.946	25372.043
625.074	25235.787
625.202	25172.021
625.330	25164.362
625.458	25220.149
625.587	25254.830
625.715	25191.617
625.843	25286.128
625.971	25254.872
626.099	25203.872
626.227	25200.511
626.355	25221.638
626.483	25291.936
626.612	25216.383
626.740	25341.830
626.868	25395.681
626.996	25331.149
627.124	25344.319
627.252	25291.043
627.380	25375.277
627.508	25396.085
627.637	25381.128
627.765	25401.170
627.893	25503.638
628.021	25576.106
628.149	25741.894
628.277	25931.979
628.405	25844.064
628.533	25630.043
628.662	25686.255
628.790	25701.255
628.918	25828.787
629.046	25765.702
629.174	25934.617
629.302	26237.936
629.430	26061.277
629.558	25987.340
629.687	26033.340
629.815	26120.319
629.943	26160.532
630.071	26181.638
630.199	26262.447
630.327	26319.319
630.455	26354.766
630.583	26481.787
630.712	26506.745
630.840	26491.851
630.968	26610.426
631.096	26499.362
631.224	26555.532
631.352	26593.043
631.480	26639.170
631.608	26679.191
631.737	26795.532
631.865	26823.723
631.993	26665.681
632.121	26891.021
632.249	26896.851
632.377	26821.362
632.505	26850.447
632.633	26643.128
632.762	26778.128
632.890	26915.745
633.018	26668.851
633.146	26935.362
633.274	26825.851
633.402	26774.638
633.530	26777.064
633.658	26922.489
633.787	26746.362
633.915	26793.809
634.043	26719.745
634.171	26774.617
634.299	26758.277
634.427	26771.426
634.555	26708.894
634.683	26587.362
634.812	26635.851
634.940	26613.277
635.068	26635.128
635.196	26546.766
635.324	26515.489
635.452	26569.170
635.580	26443.681
635.708	26458.660
635.837	26459.043
635.965	26381.617
636.093	26310.723
636.221	26298.915
636.349	26374.128
636.477	26286.426
636.605	26383.021
636.733	26151.532
636.862	26150.681
636.990	26167.617
637.118	26123.447
637.246	26127.532
637.374	26097.255
637.502	26038.362
637.630	25972.426
637.758	25994.468
637.887	25951.277
638.015	25907.319
638.143	25900.979
638.271	25908.511
638.399	25859.894
638.527	25857.596
638.655	25854.957
638.783	25965.468
638.912	25828.660
639.040	25770.362
639.168	25819.128
639.296	25781.170
639.424	25975.809
639.552	25762.723
639.680	25905.191
639.808	25838.489
639.937	25750.957
640.065	25745.149
640.193	25837.915
640.321	25660.191
640.449	25686.362
640.577	25826.404
640.705	25735.638
640.833	25840.298
640.962	25718.106
641.090	25725.936
641.218	25793.298
641.346	25794.085
641.474	25840.426
641.602	25839.106
641.730	25864.170
641.858	25838.149
641.987	25900.830
642.115	25873.660
642.243	26027.766
642.371	25923.404
642.499	25997.426
642.627	26030.511
642.755	26051.383
642.883	26020.532
643.012	26041.766
643.140	26016.702
643.268	26083.681
643.396	26065.128
643.524	26199.000
643.652	26124.021
643.780	26092.894
643.908	26198.809
644.037	26278.830
644.165	26173.830
644.293	26164.340
644.421	26207.830
644.549	26286.596
644.677	26226.468
644.805	26243.532
644.933	26186.128
645.062	26212.787
645.190	26231.362
645.318	26361.915
645.446	26274.447
645.574	26274.255
645.702	26192.319
645.830	26441.957
645.958	26205.319
646.087	26475.043
646.215	26164.723
646.343	26402.979
646.471	26177.383
646.599	26225.872
646.727	26139.298
646.855	26090.319
646.983	26211.213
647.112	26061.851
647.240	26222.191
647.368	26042.021
647.496	26088.894
647.624	25973.532
647.752	25910.809
647.880	25937.574
648.008	25915.213
648.137	25855.766
648.265	25879.617
648.393	25887.660
648.521	25816.298
648.649	25785.340
648.777	25750.043
648.905	25710.255
649.033	25692.702
649.162	25603.638
649.290	25594.298
649.418	25562.894
649.546	25512.872
649.674	25526.021
649.802	25402.021
649.930	25525.340
650.058	25356.000
650.187	25384.106
650.315	25340.596
650.443	25341.745
650.571	25269.745
650.699	25299.979
650.827	25187.213
650.955	25236.149
651.083	25147.851
651.212	25218.426
651.340	25158.681
651.468	25090.872
651.596	25028.234
651.724	24963.106
651.852	25020.681
651.980	24921.447
652.108	24892.340
652.237	24880.021
652.365	25028.553
652.493	24826.149
652.621	24840.511
652.749	24821.915
652.877	24727.191
653.005	24792.468
653.133	24729.766
653.262	24706.723
653.390	24652.255
653.518	24686.043
653.646	24660.660
653.774	24757.213
653.902	24537.021
654.030	24525.213
654.158	24479.383
654.287	24517.362
654.415	24457.617
654.543	24453.681
654.671	24409.745
654.799	24399.532
654.927	24418.340
655.055	24324.021
655.183	24276.596
655.312	24220.830
655.440	24251.404
655.568	24114.149
655.696	24142.362
655.824	24264.745
655.952	24089.681
656.080	24041.894
656.208	24085.319
656.337	23906.213
656.465	23929.809
656.593	23897.447
656.721	23775.149
656.849	23830.979
656.977	23707.915
657.105	23639.128
657.233	23580.894
657.362	23569.319
657.490	23480.404
657.618	23473.106
657.746	23483.170
657.874	23359.766
658.002	23348.596
658.130	23273.319
658.258	23178.234
658.387	23169.915
658.515	23096.915
658.643	23162.596
658.771	23077.489
658.899	23032.468
659.027	22931.128
659.155	22963.723
659.283	23070.106
659.412	22900.213
659.540	22889.894
659.668	22730.213
659.796	22738.809
659.924	22777.511
660.052	22667.596
660.180	22596.532
660.308	22524.936
660.437	22470.574
660.565	22462.128
660.693	22347.532
660.821	22330.191
660.949	22380.319
661.077	22291.979
661.205	22246.766
661.333	22206.511
661.462	22193.489
661.590	22194.191
661.718	22265.617
661.846	22155.021
661.974	22188.957
662.102	22004.298
662.230	21994.000
662.358	21925.511
662.487	21963.149
662.615	21841.766
662.743	21862.596
662.871	21889.383
662.999	21804.383
663.127	21794.511
663.255	21895.362
663.383	21772.596
663.512	21767.872
663.640	21761.255
663.768	21704.830
663.896	21807.894
664.024	21754.851
664.152	21713.255
664.280	21797.787
664.408	21635.872
664.537	21735.234
664.665	21636.638
664.793	21599.745
664.921	21538.872
665.049	21573.362
665.177	21540.170
665.305	21501.596
665.433	21539.681
665.562	21506.957
665.690	21492.702
665.818	21716.106
665.946	21507.574
666.074	21436.106
666.202	21522.277
666.330	21461.872
666.458	21412.957
666.587	21408.404
666.715	21425.809
666.843	21375.298
666.971	21299.170
667.099	21363.447
667.227	21377.319
667.355	21327.638
667.483	21320.298
667.612	21286.532
667.740	21297.191
667.868	21287.234
667.996	21223.362
668.124	21171.128
668.252	21146.851
668.380	21182.809
668.508	21126.894
668.637	21066.702
668.765	21010.298
668.893	20967.277
669.021	21006.745
669.149	20926.723
669.277	20953.426
669.405	20771.617
669.533	20795.851
669.662	21056.149
669.790	20815.574
669.918	20758.234
670.046	20708.043
670.174	20675.851
670.302	20592.681
670.430	20551.170
670.558	20524.979
670.687	20366.617
670.815	20534.149
670.943	20382.085
671.071	20291.681
671.199	20184.574
671.327	20163.894
671.455	20171.468
671.583	20050.043
671.712	20139.745
671.840	20022.915
671.968	19827.191
672.096	19843.936
672.224	19719.830
672.352	19816.766
672.480	19705.149
672.608	19578.255
672.737	19453.255
672.865	19593.766
672.993	19421.830
673.121	19321.957
673.249	19200.638
673.377	19125.915
673.505	19059.936
673.633	19053.255
673.762	18899.574
673.890	18866.511
674.018	19089.298
674.146	18732.447
674.274	18680.660
674.402	18811.404
674.530	18596.149
674.658	18517.383
674.787	18427.340
674.915	18337.745
675.043	18365.553
675.171	18305.894
675.299	18147.277
675.427	18070.319
675.555	17980.809
675.683	17957.638
675.812	17855.957
675.940	17854.021
676.068	17836.532
676.196	17712.362
676.324	17692.128
676.452	17587.915
676.580	17509.702
676.708	17502.213
676.837	17411.830
676.965	17359.447
677.093	17285.021
677.221	17222.596
677.349	17221.489
677.477	17136.936
677.605	17023.021
677.733	17063.872
677.862	16897.532
677.990	16827.681
678.118	16823.426
678.246	16772.362
678.374	16759.745
678.502	16680.979
678.630	16580.468
678.758	16560.915
678.887	16539.511
679.015	16457.191
679.143	16417.766
679.271	16307.447
679.399	16311.255
679.527	16229.362
679.655	16149.277
679.783	16177.277
679.912	16071.511
680.040	16081.638
680.168	16049.638
680.296	15973.596
680.424	15886.489
680.552	15884.021
680.680	15910.277
680.808	15762.787
680.937	15725.085
681.065	15701.809
681.193	15649.915
681.321	15638.574
681.449	15557.426
681.577	15623.085
681.705	15530.660
681.833	15507.532
681.962	15416.809
682.090	15568.872
682.218	15413.809
682.346	15299.000
682.474	15323.553
682.602	15302.745
682.730	15288.000
682.858	15197.936
682.987	15232.340
683.115	15234.596
683.243	15130.340
683.371	15090.702
683.499	15104.085
683.627	15073.936
683.755	15056.979
683.883	15112.106
684.012	14980.277
684.140	14877.255
684.268	14830.532
684.396	14872.106
684.524	14887.404
684.652	14915.191
684.780	14775.553
684.908	14796.191
685.037	14714.043
685.165	14642.830
685.293	14592.809
685.421	14679.468
685.549	14518.660
685.677	14546.787
685.805	14587.638
685.933	14577.170
686.062	14409.957
686.190	14368.617
686.318	14354.340
686.446	14262.085
686.574	14248.298
686.702	14301.766
686.830	14188.787
686.958	14112.064
687.087	14140.936
687.215	14120.596
687.343	14020.362
687.471	13944.511
687.599	13936.979
687.727	14042.936
687.855	13904.340
687.983	13875.128
688.112	13918.234
688.240	13721.596
688.368	13631.128
688.496	13671.894
688.624	13635.085
688.752	13544.936
688.880	13542.617
689.008	13506.596
689.137	13483.000
689.265	13350.468
689.393	13369.894
689.521	13291.723
689.649	13281.511
689.777	13236.489
689.905	13159.468
690.033	13142.723
690.162	13100.766
690.290	13031.723
690.418	12981.553
690.546	13046.213
690.674	12967.298
690.802	12803.532
690.930	12868.809
691.058	12772.106
691.187	12687.745
691.315	12663.319
691.443	12682.936
691.571	12533.957
691.699	12585.064
691.827	12569.085
691.955	12439.468
692.083	12396.851
692.212	12464.574
692.340	12308.128
692.468	12249.723
692.596	12197.553
692.724	12286.468
692.852	12129.191
692.980	12133.085
693.108	12053.255
693.237	11951.234
693.365	11928.319
693.493	11869.745
693.621	11839.298
693.749	11792.213
693.877	11720.170
694.005	11852.021
694.133	11672.128
694.262	11625.383
694.390	11520.191
694.518	11568.255
694.646	11477.298
694.774	11443.511
694.902	11547.894
695.030	11497.532
695.158	11286.340
695.287	11281.681
695.415	11299.489
695.543	11182.255
695.671	11266.468
695.799	11154.000
695.927	11101.255
696.055	11057.106
696.183	11034.511
696.312	10992.383
696.440	11105.468
696.568	10957.191
696.696	10919.383
696.824	10823.766
696.952	10736.234
697.080	10756.064
697.208	10664.574
697.337	10696.809
697.465	10638.255
697.593	10515.681
697.721	10538.468
697.849	10498.000
697.977	10410.915
698.105	10417.894
698.233	10327.021
698.362	10282.809
698.490	10259.894
698.618	10192.723
698.746	10243.170
698.874	10164.447
699.002	10324.362
699.130	10052.617
699.258	10050.851
699.387	9920.915
699.515	10021.340
699.643	9896.979
699.771	9898.447
699.899	9847.979
700.027	9797.021
700.155	9697.234
700.283	9686.213
700.412	9660.553
700.540	9542.362
700.668	9588.340
700.796	9483.213
700.924	9470.872
701.052	9395.362
701.180	9464.149
701.308	9340.191
701.437	9216.745
701.565	9210.723
701.693	9123.511
701.821	9138.617
701.949	9106.787
702.077	9055.894
702.205	8978.128
702.333	8960.468
702.462	8862.277
702.590	8855.979
702.718	8791.809
702.846	8748.319
702.974	8696.574
703.102	8664.191
703.230	8726.468
703.358	8626.574
703.487	8496.447
703.615	8626.213
703.743	8434.298
703.871	8376.766
703.999	8357.128
704.127	8378.319
704.255	8191.809
704.383	8365.894
704.512	8150.830
704.640	8144.340
704.768	8061.851
704.896	8073.128
705.024	7994.638
705.152	8004.915
705.280	7908.787
705.408	7806.787
705.537	7794.723
705.665	7773.511
705.793	7657.043
705.921	7646.128
706.049	7630.830
706.177	7561.255
706.305	7521.489
706.433	7559.383
706.562	7438.426
706.690	7405.872
706.818	7310.723
706.946	7524.340
707.074	7267.021
707.202	7245.383
707.330	7217.511
707.458	7171.340
707.587	7114.957
707.715	7052.936
707.843	7061.128
707.971	7042.404
708.099	7041.894
708.227	6923.234
708.355	6907.106
708.483	6800.936
708.612	6785.213
708.740	6796.915
708.868	6830.277
708.996	6741.681
709.124	6751.872
709.252	6668.298
709.380	6607.745
709.508	6666.702
709.637	6537.447
709.765	6517.404
709.893	6545.872
710.021	6504.191
710.149	6459.574
710.277	6437.277
710.405	6335.894
710.533	6349.383
710.662	6294.362
710.790	6252.383
710.918	6284.021
711.046	6265.957
711.174	6206.106
711.302	6192.149
711.430	6235.936
711.558	6086.043
711.687	6098.426
711.815	6133.298
711.943	6078.915
712.071	6086.277
712.199	6051.213
712.327	6002.404
712.455	5931.043
712.583	5950.936
712.712	5861.936
712.840	5852.277
712.968	5876.340
713.096	5862.340
713.224	5764.404
713.352	5817.234
713.480	5754.979
713.608	5754.319
713.737	5720.915
713.865	5686.872
713.993	5720.638
714.121	5621.298
714.249	5607.723
714.377	5686.277
714.505	5632.596
714.633	5692.149
714.762	5547.681
714.890	5511.511
715.018	5531.957
715.146	5462.851
715.274	5508.426
715.402	5573.766
715.530	5456.255
715.658	5353.787
715.787	5341.851
715.915	5528.447
716.043	5297.745
716.171	5361.723
716.299	5378.979
716.427	5262.255
716.555	5234.809
716.683	5214.447
716.812	5196.766
716.940	5205.426
717.068	5079.766
717.196	5247.213
717.324	5189.894
717.452	5098.043
717.580	5031.596
717.708	5018.064
717.837	5060.511
717.965	4951.319
718.093	4971.426
718.221	4879.085
718.349	4881.362
718.477	4935.617
718.605	4943.255
718.733	4830.723
718.862	4804.511
718.990	4771.638
719.118	4772.064
719.246	4735.404
719.374	4782.298
719.502	4734.809
719.630	4819.191
719.758	4604.170
719.887	4592.894
720.015	4763.872
720.143	4544.255
720.271	4538.426
720.399	4555.532
720.527	4545.596
720.655	4536.277
720.783	4541.319
720.912	4435.766
721.040	4419.979
721.168	4361.043
721.296	4387.596
721.424	4374.979
721.552	4300.128
721.680	4283.404
721.808	4319.872
721.937	4262.894
722.065	4305.043
722.193	4318.213
722.321	4176.426
722.449	4137.702
722.577	4119.426
722.705	4064.681
722.833	4101.191
722.962	4068.170
723.090	3966.043
723.218	3942.766
723.346	3970.170
723.474	3895.787
723.602	4047.128
723.730	3978.851
723.858	4020.936
723.987	3905.596
724.115	3925.915
724.243	3829.128
724.371	3792.681
724.499	3839.617
724.627	3732.787
724.755	3720.660
724.883	3737.191
725.012	3675.979
725.140	3701.021
725.268	3637.106
725.396	3573.277
725.524	3572.681
725.652	3594.809
725.780	3543.723
725.908	3592.468
726.037	3673.617
726.165	3469.447
726.293	3417.638
726.421	3413.957
726.549	3393.021
726.677	3395.362
726.805	3375.723
726.933	3331.851
727.062	3384.362
727.190	3328.766
727.318	3271.553
727.446	3283.702
727.574	3265.723
727.702	3352.191
727.830	3192.106
727.958	3261.723
728.087	3186.681
728.215	3289.319
728.343	3230.106
728.471	3154.191
728.599	3123.511
728.727	3218.149
728.855	3076.021
728.983	3063.681
729.112	3050.915
729.240	3040.681
729.368	3043.404
729.496	3029.872
729.624	3037.319
729.752	2958.426
729.880	3007.766
730.008	2925.000
730.137	2937.085
730.265	3115.170
730.393	2863.000
730.521	3007.277
730.649	2873.830
730.777	2878.915
730.905	2819.000
731.033	2933.915
731.162	3063.957
731.290	2916.745
731.418	3063.213
731.546	2976.915
731.674	2868.787
731.802	2853.468
731.930	2709.681
732.058	2689.553
732.187	2710.426
732.315	2673.298
732.443	2670.489
732.571	2834.553
732.699	2724.915
732.827	2696.255
732.955	2615.489
733.083	2569.809
733.212	2653.979
733.340	2640.255
733.468	2674.000
733.596	2561.915
733.724	2606.170
733.852	2545.106
733.980	2546.128
734.108	2710.511
734.237	2627.511
734.365	2613.447
734.493	2525.723
734.621	2519.362
734.749	2532.957
734.877	2520.213
735.005	2562.128
735.133	2539.553
735.262	2553.596
735.390	2477.553
735.518	2539.596
735.646	2453.468
735.774	2471.596
735.902	2475.447
736.030	2443.894
736.158	2495.617
736.287	2419.404
736.415	2488.596
736.543	2404.255
736.671	2396.809
736.799	2387.511
736.927	2457.277
737.055	2408.362
737.183	2364.596
737.312	2360.702
737.440	2371.319
737.568	2393.383
737.696	2331.234
737.824	2353.979
737.952	2290.149
738.080	2282.000
738.208	2330.447
738.337	2260.894
738.465	2350.979
738.593	2244.787
738.721	2212.596
738.849	2208.830
738.977	2226.617
739.105	2194.723
739.233	2202.809
739.362	2176.383
739.490	2113.468
739.618	2115.043
739.746	2150.298
739.874	2131.489
740.002	2085.447
740.130	2108.979
740.258	2085.149
740.387	2095.787
740.515	2056.872
740.643	2031.617
740.771	2090.787
740.899	2026.872
741.027	2030.234
741.155	2059.894
741.283	1991.809
741.412	1998.362
741.540	2000.255
741.668	1955.787
741.796	1961.702
741.924	2029.255
742.052	1945.000
742.180	1915.681
742.308	1926.404
742.437	1926.447
742.565	1930.021
742.693	1939.745
742.821	1887.830
742.949	1935.106
743.077	1891.362
743.205	1864.426
743.333	1863.660
743.462	1855.255
743.590	1848.787
743.718	1827.404
743.846	1864.128
743.974	1802.596
744.102	1799.191
744.230	1813.936
744.358	1773.617
744.487	1762.745
744.615	1798.830
744.743	1776.894
744.871	1727.596
744.999	1799.702
745.127	1722.170
745.255	1702.213
745.383	1741.915
745.512	1734.766
745.640	1678.191
745.768	1711.064
745.896	1702.447
746.024	1694.532
746.152	1657.660
746.280	1655.447
746.408	1658.340
746.537	1628.532
746.665	1649.723
746.793	1638.745
746.921	1612.106
747.049	1612.106
747.177	1624.362
747.305	1624.489
747.433	1647.213
747.562	1576.787
747.690	1557.574
747.818	1577.936
747.946	1578.085
748.074	1664.043
748.202	1576.170
748.330	1541.979
748.458	1565.660
748.587	1526.638
748.715	1504.660
748.843	1523.489
748.971	1511.255
749.099	1515.468
749.227	1511.000
749.355	1474.617
749.483	1486.404
749.612	1500.851
749.740	1473.085
749.868	1457.340
749.996	1456.553
750.124	1444.596
750.252	1450.319
750.380	1472.362
750.508	1407.830
750.637	1414.915
750.765	1449.426
750.893	1421.617
751.021	1444.362
751.149	1424.638
751.277	1419.596
751.405	1433.277
751.533	1440.787
751.662	1378.574
751.790	1398.149
751.918	1369.723
752.046	1371.362
752.174	1356.787
752.302	1422.255
752.430	1340.255
752.558	1321.319
752.687	1323.787
752.815	1314.979
752.943	1309.574
753.071	1290.957
753.199	1298.851
753.327	1345.809
753.455	1286.660
753.583	1259.809
753.712	1262.489
753.840	1261.830
753.968	1249.681
754.096	1262.681
754.224	1227.043
754.352	1235.681
754.480	1236.021
754.608	1236.447
754.737	1215.809
754.865	1246.915
754.993	1216.553
755.121	1200.000
755.249	1271.000
755.377	1211.553
755.505	1197.404
755.633	1215.447
755.762	1176.000
755.890	1251.574
756.018	1219.872
756.146	1160.553
756.274	1145.447
756.402	1150.638
756.530	1136.787
756.658	1160.723
756.787	1159.149
756.915	1117.489
757.043	1152.574
757.171	1130.255
757.299	1105.468
757.427	1099.915
757.555	1098.553
757.683	1152.340
757.812	1092.362
757.940	1081.915
758.068	1073.404
758.196	1050.957
758.324	1059.681
758.452	1148.766
758.580	1049.128
758.708	1047.809
758.837	1041.894
758.965	1128.170
759.093	1019.404
759.221	1019.936
759.349	1022.319
759.477	1006.191
759.605	1009.638
759.733	994.617
759.862	1007.681
759.990	988.149
760.118	995.787
760.246	974.234
760.374	992.766
760.502	993.596
760.630	981.000
760.758	962.043
760.887	949.340
761.015	963.894
761.143	938.383
761.271	930.064
761.399	929.085
761.527	947.085
761.655	937.213
761.783	921.681
761.912	915.170
762.040	901.255
762.168	949.936
762.296	908.000
762.424	903.234
762.552	901.213
762.680	950.234
762.808	867.170
762.937	897.213
763.065	935.149
763.193	924.213
763.321	896.511
763.449	851.936
763.577	860.766
763.705	853.532
763.833	944.021
763.962	866.128
764.090	851.447
764.218	869.553
764.346	836.809
764.474	830.447
764.602	832.553
764.730	827.617
764.858	851.872
764.987	832.936
765.115	863.872
765.243	824.021
765.371	805.234
765.499	788.681
765.627	777.447
765.755	790.638
765.883	805.723
766.012	794.830
766.140	777.511
766.268	782.596
766.396	760.979
766.524	779.085
766.652	762.383
766.780	754.766
766.908	768.021
767.037	763.383
767.165	767.574
767.293	813.596
767.421	745.574
767.549	749.553
767.677	745.638
767.805	732.191
767.933	750.851
768.062	743.787
768.190	733.511
768.318	718.000
768.446	735.596
768.574	758.638
768.702	743.255
768.830	705.085
768.958	717.936
769.087	694.681
769.215	702.894
769.343	700.511
769.471	684.043
769.599	733.085
769.727	720.426
769.855	687.617
769.983	682.298
770.112	674.723
770.240	669.085
770.368	679.660
770.496	655.872
770.624	653.851
770.752	677.745
770.880	709.979
771.008	667.064
771.137	657.426
771.265	703.298
771.393	665.596
771.521	645.574
771.649	632.149
771.777	648.234
771.905	645.851
772.033	649.213
772.162	654.106
772.290	629.511
772.418	681.362
772.546	644.553
772.674	626.957
772.802	645.362
772.930	674.596
773.058	613.830
773.187	625.617
773.315	611.021
773.443	624.021
773.571	609.064
773.699	607.426
773.827	600.043
773.955	642.894
774.083	625.064
774.212	601.021
774.340	628.128
774.468	598.574
774.596	598.340
774.724	599.298
774.852	595.617
774.980	594.489
775.108	588.255
775.237	585.468
775.365	583.574
775.493	577.404
775.621	585.723
775.749	583.255
775.877	571.468
776.005	573.404
776.133	589.851
776.262	576.745
776.390	552.596
776.518	598.255
776.646	555.745
776.774	569.596
776.902	557.553
777.030	558.596
777.158	569.681
777.287	576.532
777.415	532.809
777.543	541.745
777.671	538.383
777.799	533.617
777.927	528.787
778.055	555.298
778.183	536.298
778.312	508.809
778.440	525.745
778.568	530.681
778.696	522.638
778.824	532.021
778.952	528.000
779.080	499.298
779.208	546.532
779.337	527.957
779.465	512.191
779.593	512.489
779.721	524.319
779.849	516.681
779.977	501.596
780.105	486.085
780.233	517.255
780.362	528.532
780.490	542.660
780.618	506.872
780.746	501.021
780.874	487.149
781.002	491.298
781.130	471.957
781.258	482.277
781.387	485.872
781.515	507.723
781.643	483.191
781.771	528.596
781.899	477.298
782.027	519.957
782.155	492.213
782.283	489.660
782.412	472.553
782.540	473.851
782.668	500.936
782.796	461.298
782.924	495.277
783.052	460.830
783.180	493.702
783.308	460.277
783.437	460.191
783.565	470.596
783.693	465.426
783.821	453.702
783.949	450.191
784.077	477.277
784.205	449.617
784.333	502.021
784.462	436.553
784.590	459.383
784.718	459.936
784.846	434.957
784.974	465.383
785.102	487.106
785.230	448.894
785.358	493.936
785.487	442.085
785.615	446.596
785.743	435.426
785.871	436.851
785.999	424.532
786.127	414.213
786.255	429.468
786.383	462.383
786.512	449.426
786.640	436.553
786.768	438.511
786.896	414.511
787.024	431.043
787.152	418.447
787.280	425.936
787.408	405.553
787.537	426.468
787.665	421.660
787.793	459.106
787.921	436.809
788.049	412.979
788.177	401.426
788.305	410.745
788.433	434.064
788.562	408.277
788.690	407.638
788.818	411.255
788.946	420.000
789.074	396.766
789.202	426.106
789.330	416.979
789.458	404.000
789.587	459.404
789.715	405.809
789.843	405.787
789.971	401.574
790.099	390.362
790.227	418.234
790.355	392.957
790.483	423.979
790.612	393.489
790.740	398.383
790.868	412.021
790.996	403.511
791.124	391.617
791.252	398.957
791.380	402.234
791.508	408.447
791.637	397.766
791.765	380.872
791.893	383.000
792.021	392.340
792.149	381.404
792.277	392.596
792.405	368.043
792.533	403.660
792.662	367.064
792.790	377.894
792.918	392.681
793.046	380.000
793.174	390.766
793.302	382.936
793.430	384.447
793.558	375.447
793.687	375.915
793.815	377.723
793.943	396.340
794.071	399.043
794.199	375.277
794.327	380.702
794.455	437.340
794.583	463.511
794.712	361.872
794.840	368.979
794.968	375.234
795.096	396.638
795.224	356.277
795.352	362.936
795.480	396.043
795.608	379.894
795.737	374.404
795.865	366.383
795.993	351.191
796.121	339.787
796.249	358.809
796.377	366.000
796.505	358.638
796.633	342.787
796.762	354.426
796.890	368.660
797.018	371.723
797.146	349.213
797.274	335.553
797.402	353.830
797.530	367.106
797.658	345.149
797.787	397.064
797.915	350.340
798.043	362.468
798.171	336.915
798.299	356.064
798.427	336.468
798.555	350.298
798.683	323.745
798.812	347.787
798.940	403.191
799.068	343.553
799.196	376.043
799.324	334.277
799.452	341.064
799.580	330.149
799.708	391.979
799.837	326.000
799.965	342.064
800.093	349.745
800.221	316.915
800.349	338.702
800.477	333.000
800.605	336.702
800.733	350.447
800.862	339.277
800.990	376.830
801.118	314.043
801.246	324.745
801.374	337.298
801.502	323.745
801.630	322.170
801.758	328.362
801.887	343.340
802.015	323.085
802.143	314.511
802.271	338.319
802.399	321.234
802.527	310.787
802.655	343.170
802.783	370.404
802.912	324.404
803.040	320.681
803.168	310.000
803.296	303.745
803.424	329.979
803.552	317.447
803.680	313.638
803.808	326.660
803.937	316.553
804.065	300.277
804.193	310.170
804.321	356.404
804.449	292.745
804.577	307.085
804.705	317.319
804.833	342.830
804.962	297.319
805.090	312.170
805.218	323.979
805.346	315.553
805.474	324.553
805.602	332.043
805.730	309.723
805.858	290.957
805.987	322.191
806.115	313.851
806.243	310.553
806.371	336.128
806.499	418.702
806.627	440.255
806.755	410.915
806.883	316.021
807.012	307.170
807.140	326.106
807.268	320.766
807.396	328.000
807.524	291.085
807.652	300.553
807.780	359.638
807.908	290.234
808.037	348.064
808.165	322.957
808.293	307.340
808.421	345.213
808.549	286.404
808.677	297.489
808.805	336.319
808.933	298.936
809.062	314.128
809.190	358.149
809.318	297.979
809.446	298.319
809.574	351.660
809.702	285.362
809.830	307.468
809.958	309.872
810.087	298.489
810.215	318.404
810.343	304.213
810.471	307.702
810.599	290.745
810.727	290.128
810.855	278.000
810.983	285.957
811.112	309.064
811.240	289.766
811.368	304.383
811.496	334.532
811.624	303.362
811.752	286.234
811.880	301.085
812.008	278.489
812.137	303.851
812.265	269.447
812.393	305.191
812.521	314.787
812.649	288.277
812.777	284.532
812.905	321.957
813.033	281.596
813.162	274.234
813.290	284.404
813.418	297.404
813.546	281.851
813.674	283.723
813.802	291.979
813.930	274.447
814.058	274.511
814.187	294.021
814.315	280.872
814.443	295.277
814.571	302.000
814.699	315.872
814.827	276.043
814.955	273.511
815.083	307.085
815.212	309.723
815.340	314.043
815.468	265.936
815.596	287.319
815.724	289.787
815.852	279.170
815.980	273.872
816.108	272.681
816.237	273.638
816.365	290.277
816.493	289.043
816.621	276.745
816.749	285.957
816.877	285.043
817.005	300.298
817.133	286.979
817.262	269.617
817.390	274.702
817.518	273.660
817.646	293.787
817.774	268.936
817.902	268.085
818.030	268.213
818.158	309.277
818.287	294.191
818.415	258.957
818.543	279.255
818.671	293.404
818.799	270.617
818.927	291.000
819.055	284.596
819.183	270.532
819.312	271.553
819.440	262.298
819.568	265.872
819.696	277.043
819.824	285.894
819.952	265.085
820.080	284.936
820.208	265.553
820.337	262.830
820.465	303.660
820.593	266.191
820.721	271.787
820.849	276.787
820.977	267.489
821.105	279.191
821.233	248.021
821.362	292.596
821.490	255.277
821.618	266.149
821.746	264.319
821.874	273.617
822.002	260.298
822.130	262.404
822.258	254.277
822.387	253.681
822.515	273.830
822.643	275.362
822.771	276.596
822.899	267.574
823.027	313.106
823.155	256.319
823.283	253.702
823.412	268.723
823.540	263.553
823.668	315.085
823.796	256.787
823.924	292.085
824.052	295.638
824.180	271.106
824.308	256.851
824.437	252.362
824.565	258.021
824.693	278.319
824.821	267.383
824.949	267.043
825.077	270.149
825.205	299.723
825.333	281.511
825.462	283.277
825.590	259.149
825.718	273.085
825.846	258.681
825.974	254.830
826.102	260.745
826.230	254.723
826.358	255.340
826.487	252.553
826.615	296.298
826.743	249.957
826.871	280.447
826.999	316.553
827.127	265.043
827.255	271.426
827.383	250.872
827.512	278.574
827.640	249.957
827.768	250.277
827.896	257.596
828.024	255.234
828.152	254.447
828.280	260.170
828.408	251.319
828.537	259.596
828.665	265.191
828.793	266.872
828.921	248.787
829.049	273.277
829.177	248.745
829.305	245.383
829.433	264.809
829.562	273.766
829.690	245.745
829.818	281.872
829.946	256.745
830.074	262.574
830.202	262.617
830.330	273.766
830.458	296.830
830.587	261.574
830.715	258.511
830.843	248.681
830.971	266.489
831.099	275.426
831.227	248.638
831.355	245.234
831.483	257.064
831.612	290.298
831.740	248.745
831.868	259.255
831.996	253.404
832.124	245.064
832.252	235.936
832.380	263.362
832.508	297.979
832.637	245.021
832.765	250.915
832.893	283.723
833.021	241.319
833.149	240.745
833.277	260.702
833.405	246.170
833.533	247.043
833.662	247.936
833.790	248.021
833.918	254.404
834.046	279.936
834.174	255.489
834.302	243.511
834.430	236.149
834.558	252.213
834.687	263.532
834.815	237.787
834.943	254.809
835.071	252.596
835.199	249.745
835.327	267.085
835.455	235.213
835.583	281.617
835.712	243.617
835.840	244.404
835.968	245.298
836.096	294.830
836.224	261.723
836.352	233.723
836.480	260.830
836.608	252.234
836.737	240.574
836.865	239.511
836.993	246.170
837.121	251.170
837.249	242.021
837.377	266.149
837.505	260.830
837.633	239.723
837.762	241.319
837.890	268.596
838.018	280.404
838.146	280.213
838.274	261.936
838.402	272.106
838.530	244.830
838.658	230.000
838.787	253.936
838.915	249.043
839.043	230.085
839.171	268.043
839.299	233.574
839.427	240.596
839.555	246.468
839.683	263.468
839.812	269.596
839.940	235.638
840.068	264.979
840.196	253.915
840.324	238.255
840.452	251.064
840.580	282.085
840.708	249.234
840.837	275.277
840.965	237.681
841.093	247.596
841.221	237.468
841.349	246.660
841.477	255.128
841.605	250.021
841.733	247.596
841.862	249.830
841.990	293.787
842.118	224.617
842.246	240.213
842.374	242.021
842.502	221.340
842.630	261.723
842.758	268.383
842.887	235.043
843.015	246.128
843.143	265.532
843.271	241.298
843.399	278.809
843.527	253.319
843.655	229.085
843.783	240.447
843.912	239.596
844.040	266.468
844.168	230.319
844.296	237.766
844.424	232.681
844.552	246.426
844.680	256.426
844.808	262.574
844.937	246.085
845.065	236.745
845.193	261.638
845.321	239.936
845.449	240.894
845.577	240.447
845.705	240.255
845.833	232.043
845.962	248.936
846.090	228.085
846.218	242.106
846.346	258.532
846.474	258.064
846.602	243.106
846.730	270.596
846.858	254.957
846.987	243.830
847.115	229.426
847.243	261.064
847.371	261.894
847.499	249.447
847.627	241.277
847.755	238.000
847.883	243.766
848.012	250.681
848.140	237.191
848.268	252.681
848.396	229.596
848.524	260.574
848.652	218.404
848.780	237.362
848.908	243.617
849.037	230.447
849.165	253.957
849.293	256.362
849.421	260.064
849.549	242.447
849.677	245.128
849.805	242.021
849.933	245.596
850.062	237.319
850.190	241.149
850.318	244.383
850.446	227.660
850.574	227.149
850.702	239.681
850.830	242.915
850.958	256.702
851.087	227.596
851.215	243.702
851.343	236.213
851.471	236.106
851.599	248.404
851.727	241.936
851.855	282.511
851.983	241.660
852.112	239.106
852.240	226.489
852.368	234.213
852.496	241.851
852.624	231.340
852.752	234.787
852.880	219.043
853.008	240.298
853.137	246.021
853.265	257.064
853.393	242.766
853.521	256.085
853.649	241.936
853.777	230.234
853.905	246.255
854.033	233.596
854.162	290.404
854.290	242.766
854.418	225.191
854.546	230.362
854.674	336.234
854.802	237.277
854.930	224.340
855.058	223.298
855.187	225.383
855.315	259.957
855.443	213.553
855.571	223.809
855.699	229.234
855.827	234.340
855.955	233.745
856.083	236.787
856.212	248.809
856.340	226.362
856.468	280.447
856.596	255.745
856.724	239.681
856.852	237.766
856.980	232.255
857.108	249.574
857.237	221.149
857.365	257.277
857.493	227.447
857.621	223.830
857.749	243.574
857.877	245.574
858.005	252.362
858.133	236.681
858.262	235.383
858.390	228.277
858.518	218.766
858.646	224.106
858.774	230.404
858.902	210.085
859.030	230.362
859.158	237.638
859.287	243.468
859.415	262.255
859.543	221.851
859.671	221.957
859.799	252.745
859.927	235.383
860.055	234.404
860.183	241.298
860.312	235.681
860.440	235.128
860.568	229.553
860.696	209.660
860.824	303.681
860.952	272.362
861.080	239.511
861.208	237.745
861.337	242.340
861.465	262.957
861.593	260.383
861.721	225.340
861.849	228.489
861.977	218.532
862.105	242.660
862.233	262.234
862.362	240.128
862.490	255.043
862.618	214.915
862.746	236.277
862.874	226.277
863.002	224.872
863.130	258.957
863.258	239.064
863.387	246.170
863.515	248.596
863.643	239.319
863.771	306.638
863.899	233.064
864.027	219.234
864.155	221.021
864.283	255.213
864.412	231.660
864.540	224.915
864.668	223.255
864.796	232.043
864.924	234.957
865.052	235.830
865.180	229.553
865.308	206.617
865.437	235.170
865.565	235.872
865.693	262.894
865.821	239.574
865.949	253.085
866.077	229.660
866.205	239.979
866.333	247.872
866.462	223.447
866.590	237.447
866.718	244.702
866.846	226.745
866.974	246.085
867.102	249.128
867.230	261.064
867.358	231.170
867.487	229.149
867.615	261.489
867.743	238.532
867.871	241.745
867.999	241.404
868.127	227.851
868.255	276.851
868.383	285.255
868.512	233.660
868.640	226.638
868.768	214.106
868.896	216.234
869.024	264.170
869.152	231.851
869.280	239.362
869.408	266.936
869.537	232.830
869.665	300.830
869.793	227.128
869.921	263.702
870.049	236.851
870.177	243.532
870.305	280.851
870.433	220.319
870.562	245.894
870.690	219.319
870.818	223.383
870.946	235.404
871.074	265.617
871.202	242.468
871.330	252.234
871.458	210.362
871.587	230.340
871.715	232.319
871.843	222.468
871.971	226.511
872.099	237.000
872.227	223.936
872.355	247.809
872.483	236.809
872.612	236.170
872.740	243.021
872.868	221.340
872.996	235.106
873.124	232.234
873.252	231.702
873.380	228.702
873.508	220.277
873.637	246.404
873.765	223.936
873.893	277.915
874.021	239.532
874.149	225.915
874.277	235.830
874.405	227.085
874.533	235.319
874.662	1126.766
874.790	234.319
874.918	270.404
875.046	253.404
875.174	237.511
875.302	221.787
875.430	259.723
875.558	246.660
875.687	244.489
875.815	230.936
875.943	223.319
876.071	244.043
876.199	260.319
876.327	278.809
876.455	232.532
876.583	252.617
876.712	227.149
876.840	247.043
876.968	273.128
877.096	225.872
877.224	219.404
877.352	283.957
877.480	221.936
877.608	234.128
877.737	239.872
877.865	231.106
877.993	242.745
878.121	215.128
878.249	222.426
878.377	228.404
878.505	232.957
878.633	232.894
878.762	231.298
878.890	224.000
879.018	292.660
879.146	236.617
879.274	219.532
879.402	254.596
879.530	242.404
879.658	217.936
879.787	228.234
879.915	223.617
880.043	257.106
880.171	215.043
880.299	249.702
880.427	239.553
880.555	230.298
880.683	251.660
880.812	217.745
880.940	264.723
881.068	224.128
881.196	222.638
881.324	239.128
881.452	224.085
881.580	252.915
881.708	254.915
881.837	245.170
881.965	239.085
882.093	242.191
882.221	225.574
882.349	262.383
882.477	254.277
882.605	244.298
882.733	224.702
882.862	269.702
882.990	241.851
883.118	231.170
883.246	240.915
883.374	229.809
883.502	229.213
883.630	215.723
883.758	230.426
883.887	243.617
884.015	217.872
884.143	231.085
884.271	249.362
884.399	225.681
884.527	226.170
884.655	210.957
884.783	237.638
884.912	251.064
885.040	226.043
885.168	296.660
885.296	222.936
885.424	240.511
885.552	242.894
885.680	235.766
885.808	222.149
885.937	240.915
886.065	247.617
886.193	226.830
886.321	266.255
886.449	225.170
886.577	277.085
886.705	226.085
886.833	223.191
886.962	222.809
887.090	236.277
887.218	230.660
887.346	249.830
887.474	260.830
887.602	245.660
887.730	241.809
887.858	256.596
887.987	230.851
888.115	267.681
888.243	237.362
888.371	240.936
888.499	229.277
888.627	241.915
888.755	246.362
888.883	227.298
889.012	223.979
889.140	229.383
889.268	256.723
889.396	250.596
889.524	240.000
889.652	226.383
889.780	219.894
889.908	266.234
890.037	224.426
890.165	226.511
890.293	250.234
890.421	289.255
890.549	239.745
890.677	236.638
890.805	226.894
890.933	258.553
891.062	237.255
891.190	235.000
891.318	244.021
891.446	236.106
891.574	221.979
891.702	233.149
891.830	229.489
891.958	262.574
892.087	269.511
892.215	242.191
892.343	240.191
892.471	251.574
892.599	227.957
892.727	256.702
892.855	227.021
892.983	219.936
893.112	233.170
893.240	224.191
893.368	266.213
893.496	230.426
893.624	236.298
893.752	295.277
893.880	273.830
894.008	214.128
894.137	238.936
894.265	244.128
894.393	236.872
894.521	233.255
894.649	259.277
894.777	232.319
894.905	220.340
895.033	262.681
895.162	228.723
895.290	274.277
895.418	248.064
895.546	239.383
895.674	315.277
895.802	222.638
895.930	252.128
896.058	211.702
896.187	227.745
896.315	222.340
896.443	217.574
896.571	240.085
896.699	237.681
896.827	243.745
896.955	243.766
897.083	224.894
897.212	264.489
897.340	230.745
897.468	217.383
897.596	226.830
897.724	274.957
897.852	235.553
897.980	234.021
898.108	240.596
898.237	228.404
898.365	230.383
898.493	243.298
898.621	238.872
898.749	235.319
898.877	241.936
899.005	219.957
899.133	230.000
899.262	244.489
899.390	271.936
899.518	239.277
899.646	233.660
899.774	258.596
899.902	311.191
900.030	244.170
900.158	243.894
900.287	250.723
900.415	224.362
900.543	243.851
900.671	229.617
900.799	265.426
900.927	226.894
901.055	221.936
901.183	243.255
901.312	262.936
901.440	252.319
901.568	247.872
901.696	236.426
901.824	246.511
901.952	249.298
902.080	344.000
902.208	268.404
902.337	230.638
902.465	247.213
902.593	237.000
902.721	240.362
902.849	250.000
902.977	251.234
903.105	233.936
903.233	250.362
903.362	236.851
903.490	248.043
903.618	229.915
903.746	253.319
903.874	221.213
904.002	243.191
904.130	246.787
904.258	255.362
904.387	235.106
904.515	251.404
904.643	217.128
904.771	231.809
904.899	245.894
905.027	266.617
905.155	249.532
905.283	240.106
905.412	267.957
905.540	238.234
905.668	238.106
905.796	236.043
905.924	242.915
906.052	241.766
906.180	262.489
906.308	252.404
906.437	266.277
906.565	246.511
906.693	247.787
906.821	222.213
906.949	241.021
907.077	260.745
907.205	246.617
907.333	251.426
907.462	235.787
907.590	233.872
907.718	259.000
907.846	285.574
907.974	230.809
908.102	243.745
908.230	272.809
908.358	281.936
908.487	247.277
908.615	248.021
908.743	254.234
908.871	298.957
908.999	245.128
909.127	268.894
909.255	227.149
909.383	237.021
909.512	282.681
909.640	248.149
909.768	248.766
909.896	295.106
910.024	266.936
910.152	251.362
910.280	287.532
910.408	243.255
910.537	242.787
910.665	273.745
910.793	246.702
910.921	262.447
911.049	238.468
911.177	234.383
911.305	256.170
911.433	250.426
911.562	245.766
911.690	253.872
911.818	300.894
911.946	241.723
912.074	265.447
912.202	280.447
912.330	244.489
912.458	250.532
912.587	263.000
912.715	275.894
912.843	276.319
912.971	263.340
913.099	279.404
913.227	263.660
913.355	248.255
913.483	275.149
913.612	267.745
913.740	381.851
913.868	262.255
