90pol_90_120_at_750.00nm_cut_at_984.50Y_01.dat
24.04.2023
10:44:18
cut middle at Y: 984.50
top cursor: 1008 down cursor: 961 mean of: 47 lines , 2560 datapoints
wavelength(nm)	intensity[arb. units]
585.996	19087.660
586.124	18578.723
586.252	18398.702
586.380	18379.000
586.508	18475.787
586.637	18505.745
586.765	18520.489
586.893	18610.277
587.021	18577.809
587.149	18708.511
587.277	18659.064
587.405	18752.128
587.533	18727.043
587.662	18876.936
587.790	18854.723
587.918	18706.787
588.046	18771.723
588.174	18733.702
588.302	18835.617
588.430	18784.617
588.558	18742.681
588.687	18791.340
588.815	18765.170
588.943	18807.936
589.071	18782.660
589.199	18884.426
589.327	18797.021
589.455	18765.766
589.583	18855.298
589.712	18845.340
589.840	18825.894
589.968	18747.404
590.096	18798.362
590.224	18866.809
590.352	18771.000
590.480	18724.851
590.608	18787.617
590.737	18802.511
590.865	18767.660
590.993	18747.447
591.121	18822.426
591.249	18854.915
591.377	18845.511
591.505	18790.362
591.633	18852.702
591.762	18801.277
591.890	19020.702
592.018	18813.021
592.146	18846.681
592.274	18889.766
592.402	18917.553
592.530	18882.894
592.658	19203.340
592.787	18983.936
592.915	19133.043
593.043	19119.489
593.171	19095.362
593.299	19183.702
593.427	19200.000
593.555	19196.766
593.683	19291.319
593.812	19352.128
593.940	19389.191
594.068	19375.468
594.196	19519.915
594.324	19582.085
594.452	19589.489
594.580	19658.809
594.708	19699.574
594.837	19640.872
594.965	19816.894
595.093	19859.681
595.221	19874.043
595.349	20054.298
595.477	20018.021
595.605	20023.489
595.733	19993.489
595.862	20271.979
595.990	20120.234
596.118	20194.596
596.246	20388.851
596.374	20293.489
596.502	20332.872
596.630	20408.021
596.758	20354.128
596.887	20407.532
597.015	20457.809
597.143	20439.277
597.271	20497.532
597.399	20582.532
597.527	20430.830
597.655	20519.426
597.783	20550.894
597.912	20488.872
598.040	20529.766
598.168	20551.128
598.296	20549.872
598.424	20499.128
598.552	20578.830
598.680	20484.468
598.808	20600.021
598.937	20549.085
599.065	20482.660
599.193	20559.000
599.321	20523.383
599.449	20484.830
599.577	20421.957
599.705	20425.723
599.833	20502.085
599.962	20441.787
600.090	20562.000
600.218	20575.426
600.346	20520.638
600.474	20611.638
600.602	20552.489
600.730	20583.277
600.858	20696.851
600.987	20805.872
601.115	20689.106
601.243	20778.404
601.371	20803.234
601.499	20890.064
601.627	20966.681
601.755	20970.702
601.883	21104.043
602.012	21176.000
602.140	21169.106
602.268	21318.106
602.396	21314.021
602.524	21455.723
602.652	21433.106
602.780	21568.404
602.908	21597.468
603.037	21633.319
603.165	21754.809
603.293	21805.894
603.421	21907.426
603.549	21946.596
603.677	22119.915
603.805	22145.617
603.933	22285.851
604.062	22373.872
604.190	22484.766
604.318	22498.085
604.446	22607.447
604.574	22690.787
604.702	22806.234
604.830	22902.128
604.958	22935.021
605.087	23125.362
605.215	23083.766
605.343	23220.915
605.471	23291.234
605.599	23355.745
605.727	23359.915
605.855	23456.936
605.983	23515.255
606.112	23598.064
606.240	23591.596
606.368	23606.383
606.496	23855.957
606.624	23669.255
606.752	23754.660
606.880	23850.809
607.008	23942.553
607.137	23911.064
607.265	23771.170
607.393	23824.574
607.521	23884.702
607.649	23802.979
607.777	23817.702
607.905	23828.362
608.033	23809.617
608.162	23777.213
608.290	23765.979
608.418	23687.277
608.546	23761.787
608.674	23717.681
608.802	23713.979
608.930	23681.234
609.058	23726.234
609.187	23780.106
609.315	23773.085
609.443	23751.723
609.571	23825.915
609.699	23718.191
609.827	23805.468
609.955	23742.000
610.083	23703.319
610.212	23695.489
610.340	23734.319
610.468	23845.191
610.596	23821.404
610.724	23831.383
610.852	23841.340
610.980	23739.447
611.108	23881.085
611.237	23744.362
611.365	23934.319
611.493	23834.191
611.621	23968.489
611.749	24043.787
611.877	24129.489
612.005	24112.617
612.133	24272.596
612.262	24295.255
612.390	24316.872
612.518	24356.745
612.646	24554.638
612.774	24385.830
612.902	24641.936
613.030	24780.872
613.158	24972.787
613.287	24920.255
613.415	24880.851
613.543	24895.511
613.671	24857.936
613.799	25039.362
613.927	24964.489
614.055	25025.383
614.183	25209.021
614.312	25148.851
614.440	25312.872
614.568	25225.255
614.696	25430.979
614.824	25618.021
614.952	25608.447
615.080	25624.745
615.208	25752.383
615.337	25769.809
615.465	25914.745
615.593	26014.979
615.721	26266.957
615.849	26344.532
615.977	26377.574
616.105	26384.489
616.233	26397.596
616.362	26446.319
616.490	26410.489
616.618	26498.787
616.746	26563.979
616.874	26619.851
617.002	26626.979
617.130	26700.213
617.258	26795.596
617.387	26709.830
617.515	26786.936
617.643	26788.021
617.771	26765.915
617.899	26795.213
618.027	26792.915
618.155	26916.660
618.283	26896.404
618.412	26915.404
618.540	26950.426
618.668	26951.468
618.796	26916.872
618.924	27154.787
619.052	26973.277
619.180	27071.979
619.308	27103.851
619.437	27095.851
619.565	27023.255
619.693	27034.915
619.821	27141.936
619.949	27114.426
620.077	27231.085
620.205	27169.574
620.333	27219.213
620.462	27244.787
620.590	27271.851
620.718	27165.489
620.846	27202.319
620.974	27226.957
621.102	27249.191
621.230	27249.894
621.358	27294.404
621.487	27170.213
621.615	27286.766
621.743	27346.979
621.871	27281.191
621.999	27379.979
622.127	27301.532
622.255	27368.213
622.383	27376.404
622.512	27251.638
622.640	27499.298
622.768	27321.894
622.896	27303.638
623.024	27387.660
623.152	27456.574
623.280	27434.468
623.408	27321.404
623.537	27399.319
623.665	27393.340
623.793	27423.894
623.921	27410.660
624.049	27337.255
624.177	27382.255
624.305	27484.000
624.433	27449.894
624.562	27569.277
624.690	27513.702
624.818	27515.447
624.946	27606.319
625.074	27508.915
625.202	27436.149
625.330	27437.702
625.458	27522.234
625.587	27408.085
625.715	27511.936
625.843	27573.021
625.971	27538.170
626.099	27490.234
626.227	27458.085
626.355	27410.043
626.483	27620.851
626.612	27542.915
626.740	27525.489
626.868	27634.681
626.996	27633.638
627.124	27609.277
627.252	27602.681
627.380	27732.617
627.508	27839.596
627.637	27680.000
627.765	27778.936
627.893	27862.894
628.021	27908.234
628.149	28143.553
628.277	28330.383
628.405	28253.936
628.533	27987.128
628.662	28014.553
628.790	28099.340
628.918	28094.574
629.046	28239.106
629.174	28530.106
629.302	28653.234
629.430	28506.723
629.558	28401.511
629.687	28476.191
629.815	28520.766
629.943	28631.957
630.071	28706.957
630.199	28686.766
630.327	28750.106
630.455	28875.489
630.583	28942.064
630.712	28916.723
630.840	29042.106
630.968	29019.787
631.096	29084.064
631.224	29062.723
631.352	29071.809
631.480	29097.128
631.608	29181.426
631.737	29288.149
631.865	29377.128
631.993	29275.149
632.121	29420.362
632.249	29342.915
632.377	29343.809
632.505	29339.872
632.633	29234.085
632.762	29315.745
632.890	29369.255
633.018	29232.766
633.146	29455.255
633.274	29272.745
633.402	29308.638
633.530	29259.851
633.658	29460.149
633.787	29323.638
633.915	29344.447
634.043	29198.383
634.171	29165.340
634.299	29185.766
634.427	29269.681
634.555	29151.702
634.683	29009.362
634.812	29043.936
634.940	28976.468
635.068	29044.574
635.196	28978.319
635.324	28924.553
635.452	28994.404
635.580	28980.128
635.708	28937.660
635.837	28915.468
635.965	28757.660
636.093	28724.915
636.221	28727.277
636.349	28707.894
636.477	28603.383
636.605	28799.277
636.733	28521.957
636.862	28552.085
636.990	28512.830
637.118	28474.277
637.246	28456.809
637.374	28381.851
637.502	28417.553
637.630	28330.723
637.758	28286.809
637.887	28238.064
638.015	28234.660
638.143	28234.957
638.271	28197.362
638.399	28174.191
638.527	28183.766
638.655	28201.745
638.783	28237.043
638.912	28195.404
639.040	28073.894
639.168	28177.894
639.296	28122.255
639.424	28281.936
639.552	28066.340
639.680	28261.234
639.808	28180.383
639.937	28102.745
640.065	28095.064
640.193	28196.766
640.321	28105.000
640.449	28108.766
640.577	28161.362
640.705	28037.745
640.833	28167.404
640.962	28041.681
641.090	28064.723
641.218	28107.213
641.346	28194.617
641.474	28172.766
641.602	28152.702
641.730	28225.255
641.858	28177.766
641.987	28316.340
642.115	28247.596
642.243	28367.894
642.371	28290.489
642.499	28349.383
642.627	28372.894
642.755	28448.298
642.883	28469.404
643.012	28493.957
643.140	28480.404
643.268	28448.404
643.396	28563.766
643.524	28620.532
643.652	28516.617
643.780	28529.936
643.908	28594.596
644.037	28624.085
644.165	28611.255
644.293	28612.681
644.421	28686.468
644.549	28805.723
644.677	28674.426
644.805	28754.213
644.933	28709.638
645.062	28728.298
645.190	28696.277
645.318	28698.830
645.446	28680.128
645.574	28654.553
645.702	28668.468
645.830	28779.830
645.958	28625.447
646.087	28864.383
646.215	28605.957
646.343	28771.085
646.471	28630.830
646.599	28691.170
646.727	28499.553
646.855	28601.809
646.983	28653.574
647.112	28535.255
647.240	28645.830
647.368	28520.234
647.496	28556.979
647.624	28472.638
647.752	28406.936
647.880	28393.553
648.008	28397.617
648.137	28371.617
648.265	28266.596
648.393	28346.170
648.521	28197.106
648.649	28169.255
648.777	28191.638
648.905	28133.957
649.033	28059.617
649.162	28001.979
649.290	28079.277
649.418	27893.191
649.546	27898.596
649.674	27861.660
649.802	27750.106
649.930	27899.702
650.058	27753.191
650.187	27658.128
650.315	27593.021
650.443	27650.872
650.571	27566.191
650.699	27550.915
650.827	27527.213
650.955	27443.000
651.083	27431.298
651.212	27464.085
651.340	27469.511
651.468	27336.830
651.596	27281.532
651.724	27303.617
651.852	27167.851
651.980	27181.660
652.108	27197.213
652.237	27147.085
652.365	27236.553
652.493	27013.809
652.621	27065.170
652.749	27119.149
652.877	26960.319
653.005	26967.809
653.133	26961.979
653.262	26915.149
653.390	26816.255
653.518	26839.745
653.646	26789.851
653.774	26966.660
653.902	26828.511
654.030	26777.745
654.158	26737.064
654.287	26625.191
654.415	26613.872
654.543	26686.447
654.671	26518.681
654.799	26587.340
654.927	26515.234
655.055	26433.511
655.183	26472.191
655.312	26386.872
655.440	26408.000
655.568	26310.362
655.696	26352.660
655.824	26353.979
655.952	26305.766
656.080	26145.830
656.208	26270.745
656.337	26096.404
656.465	26099.064
656.593	26041.872
656.721	25915.468
656.849	25934.617
656.977	25807.489
657.105	25804.085
657.233	25770.851
657.362	25721.468
657.490	25620.787
657.618	25624.553
657.746	25542.532
657.874	25480.915
658.002	25471.574
658.130	25419.021
658.258	25343.638
658.387	25297.787
658.515	25182.723
658.643	25193.000
658.771	25124.511
658.899	25182.255
659.027	25078.383
659.155	25106.511
659.283	25143.638
659.412	24912.830
659.540	24982.851
659.668	24842.213
659.796	24776.149
659.924	24864.596
660.052	24728.234
660.180	24707.191
660.308	24655.021
660.437	24676.170
660.565	24574.851
660.693	24543.936
660.821	24489.851
660.949	24445.894
661.077	24488.191
661.205	24446.043
661.333	24435.702
661.462	24456.298
661.590	24308.745
661.718	24452.468
661.846	24284.043
661.974	24410.617
662.102	24225.894
662.230	24160.553
662.358	24133.000
662.487	24144.383
662.615	24098.362
662.743	24039.170
662.871	24027.957
662.999	23984.213
663.127	24030.255
663.255	24088.426
663.383	23953.170
663.512	23922.085
663.640	24067.702
663.768	23952.553
663.896	24003.298
664.024	23975.766
664.152	23964.617
664.280	24037.915
664.408	23939.000
664.537	24013.936
664.665	23908.000
664.793	23758.085
664.921	23781.957
665.049	23891.340
665.177	23843.064
665.305	23825.830
665.433	23813.106
665.562	23809.043
665.690	23703.553
665.818	23921.362
665.946	23709.000
666.074	23682.553
666.202	23678.830
666.330	23800.596
666.458	23644.404
666.587	23648.447
666.715	23684.106
666.843	23625.128
666.971	23565.574
667.099	23619.319
667.227	23581.021
667.355	23482.787
667.483	23515.574
667.612	23551.723
667.740	23472.319
667.868	23549.723
667.996	23471.915
668.124	23443.660
668.252	23404.745
668.380	23411.574
668.508	23397.511
668.637	23318.511
668.765	23237.957
668.893	23282.255
669.021	23162.766
669.149	23176.745
669.277	23201.298
669.405	23097.128
669.533	23115.191
669.662	23378.170
669.790	23070.660
669.918	23075.319
670.046	22994.298
670.174	22967.915
670.302	22910.723
670.430	22815.255
670.558	22815.468
670.687	22669.681
670.815	22809.681
670.943	22641.383
671.071	22575.872
671.199	22583.809
671.327	22477.872
671.455	22372.809
671.583	22300.574
671.712	22453.574
671.840	22376.957
671.968	22211.383
672.096	22127.404
672.224	22067.660
672.352	22137.872
672.480	21958.362
672.608	21859.043
672.737	21767.830
672.865	21933.638
672.993	21703.000
673.121	21592.915
673.249	21537.085
673.377	21477.170
673.505	21387.723
673.633	21350.277
673.762	21217.979
673.890	21181.234
674.018	21360.149
674.146	21080.745
674.274	21008.255
674.402	21139.489
674.530	20908.957
674.658	20856.404
674.787	20757.957
674.915	20700.128
675.043	20725.064
675.171	20595.426
675.299	20510.830
675.427	20474.383
675.555	20326.617
675.683	20284.319
675.812	20264.319
675.940	20160.128
676.068	20115.957
676.196	19999.383
676.324	19988.957
676.452	19884.851
676.580	19808.298
676.708	19770.468
676.837	19734.681
676.965	19670.957
677.093	19586.702
677.221	19539.213
677.349	19533.128
677.477	19484.702
677.605	19379.617
677.733	19365.660
677.862	19170.213
677.990	19153.468
678.118	19101.043
678.246	19067.064
678.374	19012.064
678.502	18845.766
678.630	18889.426
678.758	18862.128
678.887	18779.149
679.015	18715.596
679.143	18659.553
679.271	18606.617
679.399	18629.936
679.527	18524.362
679.655	18425.234
679.783	18464.617
679.912	18424.213
680.040	18374.426
680.168	18293.915
680.296	18289.234
680.424	18172.426
680.552	18203.745
680.680	18239.979
680.808	18093.915
680.937	17991.638
681.065	17937.085
681.193	17979.702
681.321	18005.000
681.449	17934.638
681.577	17884.213
681.705	17840.426
681.833	17806.255
681.962	17757.085
682.090	17886.532
682.218	17725.809
682.346	17681.191
682.474	17653.851
682.602	17600.149
682.730	17608.128
682.858	17526.617
682.987	17643.362
683.115	17535.723
683.243	17513.681
683.371	17463.553
683.499	17447.383
683.627	17452.511
683.755	17455.277
683.883	17521.277
684.012	17331.489
684.140	17261.851
684.268	17228.021
684.396	17237.170
684.524	17245.830
684.652	17308.872
684.780	17221.617
684.908	17176.064
685.037	17102.936
685.165	17040.894
685.293	17054.766
685.421	17074.660
685.549	16976.447
685.677	16903.404
685.805	17006.511
685.933	16920.617
686.062	16797.340
686.190	16803.106
686.318	16781.894
686.446	16706.383
686.574	16642.851
686.702	16743.596
686.830	16583.149
686.958	16521.979
687.087	16499.596
687.215	16518.383
687.343	16406.532
687.471	16364.809
687.599	16288.298
687.727	16510.894
687.855	16282.872
687.983	16310.532
688.112	16317.596
688.240	16130.617
688.368	16135.362
688.496	16087.043
688.624	16125.149
688.752	15984.319
688.880	15982.617
689.008	15936.000
689.137	15938.553
689.265	15798.511
689.393	15773.979
689.521	15674.787
689.649	15688.553
689.777	15655.979
689.905	15585.447
690.033	15549.362
690.162	15508.319
690.290	15446.511
690.418	15442.043
690.546	15505.809
690.674	15368.489
690.802	15309.128
690.930	15287.532
691.058	15227.596
691.187	15164.809
691.315	15105.660
691.443	15155.851
691.571	15032.191
691.699	15033.404
691.827	15018.681
691.955	14884.723
692.083	14859.128
692.212	14937.021
692.340	14769.319
692.468	14765.936
692.596	14718.830
692.724	14846.404
692.852	14676.809
692.980	14690.787
693.108	14579.553
693.237	14516.936
693.365	14432.404
693.493	14400.383
693.621	14379.085
693.749	14305.468
693.877	14270.255
694.005	14373.617
694.133	14199.766
694.262	14175.255
694.390	14103.043
694.518	14087.383
694.646	14035.000
694.774	14028.447
694.902	14101.128
695.030	13994.170
695.158	13838.660
695.287	13852.149
695.415	13770.915
695.543	13689.979
695.671	13833.234
695.799	13729.128
695.927	13647.426
696.055	13586.319
696.183	13509.766
696.312	13558.319
696.440	13675.915
696.568	13509.255
696.696	13508.979
696.824	13388.255
696.952	13321.830
697.080	13290.426
697.208	13165.936
697.337	13230.085
697.465	13154.979
697.593	13049.511
697.721	13041.787
697.849	13026.511
697.977	12994.000
698.105	12963.681
698.233	12889.617
698.362	12831.277
698.490	12786.702
698.618	12809.468
698.746	12801.766
698.874	12713.809
699.002	12867.021
699.130	12629.766
699.258	12618.404
699.387	12497.362
699.515	12542.170
699.643	12415.936
699.771	12459.298
699.899	12334.277
700.027	12376.000
700.155	12269.638
700.283	12240.894
700.412	12226.043
700.540	12190.468
700.668	12181.447
700.796	12073.340
700.924	12011.149
701.052	12008.745
701.180	12062.000
701.308	11908.660
701.437	11792.745
701.565	11742.106
701.693	11678.468
701.821	11679.064
701.949	11654.277
702.077	11589.085
702.205	11529.170
702.333	11536.000
702.462	11431.681
702.590	11443.851
702.718	11378.681
702.846	11295.979
702.974	11238.021
703.102	11208.213
703.230	11217.511
703.358	11150.000
703.487	11051.617
703.615	11221.894
703.743	10973.638
703.871	10935.362
703.999	10924.660
704.127	10930.489
704.255	10681.021
704.383	10904.362
704.512	10680.787
704.640	10650.532
704.768	10561.021
704.896	10583.511
705.024	10474.553
705.152	10530.191
705.280	10346.511
705.408	10329.298
705.537	10311.128
705.665	10171.787
705.793	10152.489
705.921	10113.660
706.049	10079.191
706.177	10010.298
706.305	9932.745
706.433	10016.617
706.562	9897.234
706.690	9820.894
706.818	9773.064
706.946	9981.213
707.074	9721.723
707.202	9678.404
707.330	9716.702
707.458	9602.319
707.587	9515.426
707.715	9486.468
707.843	9487.170
707.971	9479.574
708.099	9453.404
708.227	9359.255
708.355	9340.702
708.483	9255.553
708.612	9245.468
708.740	9218.851
708.868	9249.298
708.996	9117.894
709.124	9146.532
709.252	9067.277
709.380	9041.979
709.508	9074.128
709.637	8981.404
709.765	8938.830
709.893	8925.809
710.021	8907.128
710.149	8856.511
710.277	8873.936
710.405	8766.426
710.533	8771.298
710.662	8709.000
710.790	8692.149
710.918	8723.766
711.046	8648.340
711.174	8585.532
711.302	8585.574
711.430	8646.617
711.558	8541.553
711.687	8471.787
711.815	8469.872
711.943	8439.872
712.071	8453.128
712.199	8472.553
712.327	8385.000
712.455	8339.617
712.583	8355.532
712.712	8305.830
712.840	8276.596
712.968	8246.787
713.096	8251.489
713.224	8156.106
713.352	8165.128
713.480	8136.021
713.608	8122.532
713.737	8086.638
713.865	8066.809
713.993	8106.979
714.121	8009.830
714.249	8007.489
714.377	8079.128
714.505	8004.213
714.633	8083.106
714.762	7982.596
714.890	7856.702
715.018	7915.170
715.146	7901.000
715.274	7886.298
715.402	8005.213
715.530	7856.170
715.658	7732.830
715.787	7713.149
715.915	7891.340
716.043	7701.979
716.171	7776.936
716.299	7723.468
716.427	7675.021
716.555	7610.681
716.683	7612.638
716.812	7588.638
716.940	7606.340
717.068	7475.021
717.196	7644.681
717.324	7574.574
717.452	7470.021
717.580	7436.511
717.708	7414.170
717.837	7421.809
717.965	7295.383
718.093	7328.149
718.221	7267.340
718.349	7296.021
718.477	7299.426
718.605	7288.383
718.733	7185.319
718.862	7160.340
718.990	7136.362
719.118	7162.362
719.246	7067.851
719.374	7136.149
719.502	7075.298
719.630	7183.511
719.758	6953.894
719.887	6973.298
720.015	7125.787
720.143	6858.532
720.271	6892.894
720.399	6897.766
720.527	6888.383
720.655	6828.702
720.783	6850.766
720.912	6757.511
721.040	6752.596
721.168	6669.085
721.296	6705.745
721.424	6684.617
721.552	6576.596
721.680	6598.511
721.808	6606.255
721.937	6563.894
722.065	6597.234
722.193	6586.915
722.321	6438.723
722.449	6442.468
722.577	6393.362
722.705	6366.936
722.833	6402.340
722.962	6356.766
723.090	6272.043
723.218	6204.957
723.346	6219.085
723.474	6231.319
723.602	6303.894
723.730	6251.936
723.858	6306.915
723.987	6174.702
724.115	6172.128
724.243	6091.809
724.371	6081.766
724.499	6069.489
724.627	5958.085
724.755	5947.234
724.883	5958.149
725.012	5907.043
725.140	5914.702
725.268	5901.681
725.396	5811.234
725.524	5775.532
725.652	5795.106
725.780	5753.660
725.908	5836.085
726.037	5866.702
726.165	5681.894
726.293	5647.702
726.421	5642.915
726.549	5584.362
726.677	5576.851
726.805	5556.085
726.933	5504.085
727.062	5558.085
727.190	5497.787
727.318	5461.340
727.446	5460.489
727.574	5460.766
727.702	5516.957
727.830	5373.255
727.958	5437.489
728.087	5383.468
728.215	5442.362
728.343	5384.936
728.471	5267.489
728.599	5267.745
728.727	5370.277
728.855	5226.830
728.983	5221.000
729.112	5206.489
729.240	5130.553
729.368	5153.511
729.496	5133.277
729.624	5125.064
729.752	5093.149
729.880	5144.426
730.008	5069.979
730.137	5036.298
730.265	5208.426
730.393	5019.532
730.521	5089.106
730.649	4941.021
730.777	4973.213
730.905	4911.149
731.033	5070.553
731.162	5097.532
731.290	5036.660
731.418	5126.362
731.546	5004.660
731.674	4926.830
731.802	4943.957
731.930	4799.255
732.058	4773.702
732.187	4742.936
732.315	4747.043
732.443	4757.979
732.571	4915.213
732.699	4777.681
732.827	4772.745
732.955	4683.404
733.083	4670.617
733.212	4726.723
733.340	4723.021
733.468	4724.681
733.596	4581.660
733.724	4640.021
733.852	4561.191
733.980	4570.277
734.108	4748.170
734.237	4601.191
734.365	4634.745
734.493	4541.128
734.621	4518.660
734.749	4500.681
734.877	4527.149
735.005	4517.809
735.133	4511.596
735.262	4539.298
735.390	4436.596
735.518	4538.745
735.646	4366.894
735.774	4357.149
735.902	4394.191
736.030	4324.766
736.158	4406.404
736.287	4282.723
736.415	4480.532
736.543	4318.170
736.671	4282.213
736.799	4226.660
736.927	4358.660
737.055	4277.064
737.183	4336.213
737.312	4292.745
737.440	4248.638
737.568	4244.894
737.696	4189.064
737.824	4230.830
737.952	4176.979
738.080	4131.617
738.208	4151.149
738.337	4163.638
738.465	4186.426
738.593	4056.553
738.721	4065.000
738.849	4087.766
738.977	4077.277
739.105	4089.511
739.233	4019.787
739.362	4050.830
739.490	3961.851
739.618	3947.468
739.746	3948.085
739.874	4106.383
740.002	4039.957
740.130	3977.894
740.258	3866.191
740.387	3833.894
740.515	3963.404
740.643	3807.234
740.771	3885.149
740.899	3839.383
741.027	3887.809
741.155	3927.021
741.283	3739.106
741.412	3746.340
741.540	3762.957
741.668	3817.149
741.796	3850.085
741.924	3758.170
742.052	3674.255
742.180	3866.064
742.308	3652.787
742.437	3654.532
742.565	3756.340
742.693	3804.426
742.821	3703.383
742.949	3663.766
743.077	3626.085
743.205	3598.000
743.333	3577.532
743.462	3591.915
743.590	3585.128
743.718	3515.979
743.846	3537.277
743.974	3546.362
744.102	3654.021
744.230	3521.787
744.358	3470.426
744.487	3460.277
744.615	3486.915
744.743	3405.191
744.871	3397.043
744.999	3491.106
745.127	3454.340
745.255	3350.638
745.383	3383.723
745.512	3384.170
745.640	3319.170
745.768	3320.468
745.896	3349.149
746.024	3304.319
746.152	3310.745
746.280	3268.957
746.408	3331.830
746.537	3367.319
746.665	3251.362
746.793	3305.213
746.921	3202.766
747.049	3367.447
747.177	3271.766
747.305	3250.894
747.433	3261.766
747.562	3161.894
747.690	3213.489
747.818	3199.255
747.946	3124.979
748.074	3201.617
748.202	3138.213
748.330	3197.085
748.458	3135.809
748.587	3064.787
748.715	3031.830
748.843	3096.447
748.971	3085.979
749.099	3061.872
749.227	3075.404
749.355	3004.319
749.483	3018.234
749.612	3019.000
749.740	3022.191
749.868	3067.213
749.996	2969.766
750.124	2922.468
750.252	2929.191
750.380	2920.383
750.508	2939.596
750.637	2927.000
750.765	2963.021
750.893	2889.191
751.021	2851.957
751.149	3089.106
751.277	2899.170
751.405	2901.681
751.533	2958.149
751.662	2953.745
751.790	2954.723
751.918	2909.787
752.046	2845.468
752.174	2760.064
752.302	3030.383
752.430	2841.851
752.558	2758.979
752.687	2700.979
752.815	2748.234
752.943	2859.936
753.071	2803.638
753.199	2698.106
753.327	2713.936
753.455	2846.638
753.583	2670.787
753.712	2709.979
753.840	2637.532
753.968	2717.383
754.096	2589.234
754.224	2579.404
754.352	2578.638
754.480	2605.043
754.608	2589.064
754.737	2548.851
754.865	2666.511
754.993	2615.383
755.121	2534.872
755.249	2562.745
755.377	2569.468
755.505	2531.298
755.633	2553.787
755.762	2493.277
755.890	2647.809
756.018	2605.298
756.146	2571.404
756.274	2513.255
756.402	2467.489
756.530	2487.064
756.658	2464.872
756.787	2489.191
756.915	2455.170
757.043	2491.766
757.171	2481.255
757.299	2442.149
757.427	2422.596
757.555	2426.106
757.683	2465.106
757.812	2394.170
757.940	2409.340
758.068	2383.298
758.196	2368.191
758.324	2357.681
758.452	2457.596
758.580	2349.106
758.708	2344.532
758.837	2319.787
758.965	2400.489
759.093	2273.489
759.221	2258.298
759.349	2257.660
759.477	2255.426
759.605	2250.170
759.733	2217.596
759.862	2240.021
759.990	2216.745
760.118	2196.596
760.246	2169.234
760.374	2186.851
760.502	2191.426
760.630	2147.106
760.758	2124.170
760.887	2077.872
761.015	2124.851
761.143	2092.681
761.271	2086.766
761.399	2049.702
761.527	2069.404
761.655	2072.468
761.783	2038.553
761.912	2028.170
762.040	2002.872
762.168	2044.213
762.296	1990.681
762.424	1986.936
762.552	1975.745
762.680	2027.021
762.808	1926.872
762.937	1952.702
763.065	1977.851
763.193	1939.064
763.321	1922.362
763.449	1860.532
763.577	1878.617
763.705	1878.851
763.833	1946.298
763.962	1840.851
764.090	1833.809
764.218	1846.404
764.346	1847.255
764.474	1773.681
764.602	1802.213
764.730	1792.851
764.858	1808.574
764.987	1772.319
765.115	1815.319
765.243	1763.319
765.371	1737.766
765.499	1699.574
765.627	1705.830
765.755	1713.447
765.883	1713.404
766.012	1711.213
766.140	1666.489
766.268	1681.660
766.396	1634.809
766.524	1647.830
766.652	1652.511
766.780	1634.915
766.908	1630.170
767.037	1615.489
767.165	1635.213
767.293	1680.936
767.421	1589.021
767.549	1601.830
767.677	1588.723
767.805	1564.298
767.933	1605.894
768.062	1599.851
768.190	1570.596
768.318	1552.596
768.446	1582.000
768.574	1565.574
768.702	1583.128
768.830	1527.213
768.958	1514.532
769.087	1503.617
769.215	1504.213
769.343	1494.681
769.471	1475.489
769.599	1522.170
769.727	1510.830
769.855	1500.149
769.983	1483.255
770.112	1461.638
770.240	1451.064
770.368	1451.170
770.496	1447.340
770.624	1459.702
770.752	1448.234
770.880	1459.702
771.008	1413.638
771.137	1416.745
771.265	1469.596
771.393	1415.957
771.521	1424.128
771.649	1397.043
771.777	1393.106
771.905	1393.128
772.033	1405.149
772.162	1413.787
772.290	1373.106
772.418	1412.170
772.546	1386.681
772.674	1366.043
772.802	1379.723
772.930	1397.234
773.058	1352.638
773.187	1351.043
773.315	1336.872
773.443	1343.766
773.571	1329.596
773.699	1325.830
773.827	1312.234
773.955	1354.660
774.083	1334.277
774.212	1305.213
774.340	1328.532
774.468	1295.681
774.596	1282.532
774.724	1278.489
774.852	1272.638
774.980	1274.596
775.108	1285.681
775.237	1272.021
775.365	1257.489
775.493	1240.213
775.621	1259.128
775.749	1255.191
775.877	1241.319
776.005	1252.979
776.133	1258.128
776.262	1248.085
776.390	1197.128
776.518	1269.894
776.646	1207.340
776.774	1234.787
776.902	1211.617
777.030	1192.766
777.158	1205.830
777.287	1212.149
777.415	1176.660
777.543	1175.106
777.671	1167.404
777.799	1156.702
777.927	1168.574
778.055	1163.532
778.183	1165.936
778.312	1108.681
778.440	1156.830
778.568	1157.043
778.696	1133.191
778.824	1137.043
778.952	1122.255
779.080	1101.489
779.208	1138.362
779.337	1130.979
779.465	1123.213
779.593	1113.000
779.721	1135.255
779.849	1101.532
779.977	1085.851
780.105	1064.489
780.233	1102.404
780.362	1100.766
780.490	1099.362
780.618	1051.596
780.746	1058.277
780.874	1029.191
781.002	1045.191
781.130	1026.872
781.258	1022.511
781.387	1028.064
781.515	1048.596
781.643	1014.979
781.771	1055.021
781.899	1014.064
782.027	1050.872
782.155	1032.128
782.283	1006.723
782.412	990.277
782.540	988.596
782.668	1016.638
782.796	968.191
782.924	1004.553
783.052	963.021
783.180	993.617
783.308	957.617
783.437	970.404
783.565	963.915
783.693	957.489
783.821	958.660
783.949	945.894
784.077	953.085
784.205	943.830
784.333	969.383
784.462	908.532
784.590	932.787
784.718	926.277
784.846	909.468
784.974	930.638
785.102	960.702
785.230	894.447
785.358	949.745
785.487	910.872
785.615	900.957
785.743	892.617
785.871	905.872
785.999	878.255
786.127	867.723
786.255	886.702
786.383	899.787
786.512	893.234
786.640	874.638
786.768	886.872
786.896	851.660
787.024	847.319
787.152	860.319
787.280	856.170
787.408	849.213
787.537	860.872
787.665	842.128
787.793	872.574
787.921	835.468
788.049	839.723
788.177	810.234
788.305	811.894
788.433	834.511
788.562	799.085
788.690	802.979
788.818	813.723
788.946	811.532
789.074	790.106
789.202	807.745
789.330	805.489
789.458	791.830
789.587	849.723
789.715	778.681
789.843	785.723
789.971	778.894
790.099	774.191
790.227	780.702
790.355	760.489
790.483	784.277
790.612	761.426
790.740	763.979
790.868	770.660
790.996	762.106
791.124	747.404
791.252	742.021
791.380	760.915
791.508	766.617
791.637	733.213
791.765	723.511
791.893	722.596
792.021	725.319
792.149	725.830
792.277	732.064
792.405	711.255
792.533	731.426
792.662	685.064
792.790	707.426
792.918	712.915
793.046	688.872
793.174	724.383
793.302	687.851
793.430	703.702
793.558	681.915
793.687	688.191
793.815	691.362
793.943	705.553
794.071	695.936
794.199	676.362
794.327	675.383
794.455	743.787
794.583	763.872
794.712	656.404
794.840	661.660
794.968	665.894
795.096	684.489
795.224	642.170
795.352	643.809
795.480	680.468
795.608	659.851
795.737	646.255
795.865	635.234
795.993	631.468
796.121	615.851
796.249	636.128
796.377	638.596
796.505	626.468
796.633	608.787
796.762	614.000
796.890	620.894
797.018	625.319
797.146	598.106
797.274	597.723
797.402	603.213
797.530	614.574
797.658	588.489
797.787	639.106
797.915	595.851
798.043	607.085
798.171	572.319
798.299	600.766
798.427	573.511
798.555	584.234
798.683	554.830
798.812	586.106
798.940	625.064
799.068	564.213
799.196	604.149
799.324	563.043
799.452	570.277
799.580	545.234
799.708	607.362
799.837	538.277
799.965	552.553
800.093	565.468
800.221	528.553
800.349	543.383
800.477	547.000
800.605	553.149
800.733	546.234
800.862	550.170
800.990	571.979
801.118	525.872
801.246	525.106
801.374	538.128
801.502	523.936
801.630	510.404
801.758	525.809
801.887	534.191
802.015	507.638
802.143	499.170
802.271	531.915
802.399	513.617
802.527	496.660
802.655	542.234
802.783	556.681
802.912	506.000
803.040	501.277
803.168	484.170
803.296	482.213
803.424	496.809
803.552	487.957
803.680	488.617
803.808	500.766
803.937	480.383
804.065	467.234
804.193	486.191
804.321	525.745
804.449	464.702
804.577	469.468
804.705	479.128
804.833	503.213
804.962	456.936
805.090	470.596
805.218	481.872
805.346	474.511
805.474	478.149
805.602	490.277
805.730	459.170
805.858	445.851
805.987	463.638
806.115	459.830
806.243	459.936
806.371	484.128
806.499	558.830
806.627	571.043
806.755	548.064
806.883	470.000
807.012	445.064
807.140	462.468
807.268	459.851
807.396	452.574
807.524	431.745
807.652	436.915
807.780	495.511
807.908	434.362
808.037	468.170
808.165	461.936
808.293	441.723
808.421	476.553
808.549	423.872
808.677	422.596
808.805	461.553
808.933	438.979
809.062	446.745
809.190	488.340
809.318	432.128
809.446	418.745
809.574	475.660
809.702	404.255
809.830	421.787
809.958	424.340
810.087	417.489
810.215	432.362
810.343	425.936
810.471	427.447
810.599	402.638
810.727	408.872
810.855	393.447
810.983	401.298
811.112	416.830
811.240	402.149
811.368	413.468
811.496	447.213
811.624	413.340
811.752	389.468
811.880	409.404
812.008	389.064
812.137	416.979
812.265	376.596
812.393	407.447
812.521	425.404
812.649	389.638
812.777	390.064
812.905	415.234
813.033	377.660
813.162	374.596
813.290	386.000
813.418	399.319
813.546	384.213
813.674	385.894
813.802	387.000
813.930	365.149
814.058	374.021
814.187	387.936
814.315	382.043
814.443	386.170
814.571	386.766
814.699	400.830
814.827	369.298
814.955	366.596
815.083	391.915
815.212	393.255
815.340	401.191
815.468	361.340
815.596	369.191
815.724	377.894
815.852	364.021
815.980	363.532
816.108	361.681
816.237	353.957
816.365	369.766
816.493	376.553
816.621	356.957
816.749	372.319
816.877	363.830
817.005	379.128
817.133	371.553
817.262	350.702
817.390	355.298
817.518	348.745
817.646	367.468
817.774	346.213
817.902	350.745
818.030	345.894
818.158	390.766
818.287	369.234
818.415	333.362
818.543	349.255
818.671	371.298
818.799	345.915
818.927	354.851
819.055	356.000
819.183	338.128
819.312	347.064
819.440	341.106
819.568	330.468
819.696	344.213
819.824	353.936
819.952	335.234
820.080	345.957
820.208	336.809
820.337	331.872
820.465	367.255
820.593	332.085
820.721	334.383
820.849	348.191
820.977	330.021
821.105	344.745
821.233	315.574
821.362	351.000
821.490	321.128
821.618	327.660
821.746	322.957
821.874	327.617
822.002	326.149
822.130	320.851
822.258	311.362
822.387	312.681
822.515	339.489
822.643	333.830
822.771	332.404
822.899	326.723
823.027	369.362
823.155	307.362
823.283	305.234
823.412	329.213
823.540	319.234
823.668	364.447
823.796	311.234
823.924	340.319
824.052	342.617
824.180	328.000
824.308	304.468
824.437	306.957
824.565	307.149
824.693	324.617
824.821	326.277
824.949	322.830
825.077	317.574
825.205	344.511
825.333	335.745
825.462	331.660
825.590	311.851
825.718	333.766
825.846	313.809
825.974	297.362
826.102	301.681
826.230	304.915
826.358	307.511
826.487	294.128
826.615	346.979
826.743	295.638
826.871	321.511
826.999	349.362
827.127	309.085
827.255	312.936
827.383	287.894
827.512	322.851
827.640	295.553
827.768	295.128
827.896	304.511
828.024	299.660
828.152	299.851
828.280	308.447
828.408	297.574
828.537	298.000
828.665	304.319
828.793	299.191
828.921	286.383
829.049	315.106
829.177	289.213
829.305	286.894
829.433	303.574
829.562	310.553
829.690	286.255
829.818	318.787
829.946	297.191
830.074	303.787
830.202	312.447
830.330	309.468
830.458	331.128
830.587	291.936
830.715	297.723
830.843	285.532
830.971	299.957
831.099	317.234
831.227	280.532
831.355	287.702
831.483	297.638
831.612	318.511
831.740	296.660
831.868	295.213
831.996	283.489
832.124	281.383
832.252	269.234
832.380	292.319
832.508	336.426
832.637	281.723
832.765	292.447
832.893	319.085
833.021	276.191
833.149	267.957
833.277	287.128
833.405	281.489
833.533	273.809
833.662	283.574
833.790	272.787
833.918	290.872
834.046	321.511
834.174	288.149
834.302	279.617
834.430	267.681
834.558	285.532
834.687	295.426
834.815	272.170
834.943	282.851
835.071	282.064
835.199	282.319
835.327	300.766
835.455	273.298
835.583	311.787
835.712	260.340
835.840	269.426
835.968	278.426
836.096	327.766
836.224	291.404
836.352	263.000
836.480	282.362
836.608	284.809
836.737	270.043
836.865	266.085
836.993	281.766
837.121	279.574
837.249	263.362
837.377	292.979
837.505	281.447
837.633	275.745
837.762	275.617
837.890	303.660
838.018	304.426
838.146	307.404
838.274	273.979
838.402	293.766
838.530	260.894
838.658	257.277
838.787	271.021
838.915	269.553
839.043	261.277
839.171	286.553
839.299	258.255
839.427	267.872
839.555	273.468
839.683	288.766
839.812	295.255
839.940	262.021
840.068	278.064
840.196	280.830
840.324	261.830
840.452	265.574
840.580	301.085
840.708	270.106
840.837	298.723
840.965	263.170
841.093	272.851
841.221	260.319
841.349	268.106
841.477	276.511
841.605	277.170
841.733	263.149
841.862	263.532
841.990	314.809
842.118	244.213
842.246	259.745
842.374	268.426
842.502	249.511
842.630	278.872
842.758	287.596
842.887	253.128
843.015	272.596
843.143	285.957
843.271	262.468
843.399	296.979
843.527	270.191
843.655	251.745
843.783	258.128
843.912	251.638
844.040	290.447
844.168	254.489
844.296	250.064
844.424	251.745
844.552	271.681
844.680	271.532
844.808	287.404
844.937	260.532
845.065	259.809
845.193	275.383
845.321	259.957
845.449	256.426
845.577	257.277
845.705	257.340
845.833	249.723
845.962	271.149
846.090	256.000
846.218	265.979
846.346	272.340
846.474	269.128
846.602	257.872
846.730	288.660
846.858	268.574
846.987	259.447
847.115	244.660
847.243	276.340
847.371	279.660
847.499	269.426
847.627	248.851
847.755	242.489
847.883	265.340
848.012	264.617
848.140	259.660
848.268	266.319
848.396	243.638
848.524	273.277
848.652	234.766
848.780	254.383
848.908	258.809
849.037	242.766
849.165	269.149
849.293	258.596
849.421	273.468
849.549	259.468
849.677	257.383
849.805	260.596
849.933	259.723
850.062	248.915
850.190	250.149
850.318	260.468
850.446	249.298
850.574	244.149
850.702	250.191
850.830	249.447
850.958	273.617
851.087	240.936
851.215	258.702
851.343	248.106
851.471	250.872
851.599	252.596
851.727	253.000
851.855	301.085
851.983	261.064
852.112	252.830
852.240	248.617
852.368	258.447
852.496	253.809
852.624	250.553
852.752	252.064
852.880	237.702
853.008	250.489
853.137	259.255
853.265	263.064
853.393	250.149
853.521	262.043
853.649	257.979
853.777	238.128
853.905	258.489
854.033	250.745
854.162	304.085
854.290	250.383
854.418	240.149
854.546	245.766
854.674	350.170
854.802	251.851
854.930	241.021
855.058	231.894
855.187	237.277
855.315	267.553
855.443	233.638
855.571	239.894
855.699	244.447
855.827	252.660
855.955	246.638
856.083	249.936
856.212	256.915
856.340	242.277
856.468	292.362
856.596	264.128
856.724	251.851
856.852	251.723
856.980	243.426
857.108	258.532
857.237	236.787
857.365	269.340
857.493	244.617
857.621	232.723
857.749	241.021
857.877	255.277
858.005	260.830
858.133	247.170
858.262	243.851
858.390	234.021
858.518	224.532
858.646	229.979
858.774	231.766
858.902	215.128
859.030	244.638
859.158	257.766
859.287	254.319
859.415	268.681
859.543	230.723
859.671	235.000
859.799	263.489
859.927	244.681
860.055	245.191
860.183	249.936
860.312	245.957
860.440	244.234
860.568	242.617
860.696	224.383
860.824	308.128
860.952	285.681
861.080	243.085
861.208	249.149
861.337	250.064
861.465	273.362
861.593	267.426
861.721	237.851
861.849	241.511
861.977	226.000
862.105	249.830
862.233	270.149
862.362	253.447
862.490	264.000
862.618	224.915
862.746	241.766
862.874	237.957
863.002	235.213
863.130	264.170
863.258	246.851
863.387	257.553
863.515	261.085
863.643	245.681
863.771	310.234
863.899	243.021
864.027	229.532
864.155	226.021
864.283	258.830
864.412	236.894
864.540	236.191
864.668	229.085
864.796	237.426
864.924	251.319
865.052	252.617
865.180	231.340
865.308	216.660
865.437	241.128
865.565	245.426
865.693	276.447
865.821	247.702
865.949	261.787
866.077	241.638
866.205	247.511
866.333	253.723
866.462	234.000
866.590	246.213
866.718	256.340
866.846	235.809
866.974	251.574
867.102	253.255
867.230	268.979
867.358	245.255
867.487	236.277
867.615	261.234
867.743	238.468
867.871	249.830
867.999	246.872
868.127	236.213
868.255	287.936
868.383	284.404
868.512	237.596
868.640	230.021
868.768	228.851
868.896	225.489
869.024	266.362
869.152	235.362
869.280	249.766
869.408	276.191
869.537	230.277
869.665	305.468
869.793	229.106
869.921	271.745
870.049	244.085
870.177	252.426
870.305	282.872
870.433	227.489
870.562	251.362
870.690	231.787
870.818	229.489
870.946	250.979
871.074	266.936
871.202	250.745
871.330	258.617
871.458	221.809
871.587	236.064
871.715	243.894
871.843	228.447
871.971	228.766
872.099	241.681
872.227	231.021
872.355	255.383
872.483	249.404
872.612	254.404
872.740	251.277
872.868	234.085
872.996	238.681
873.124	237.404
873.252	244.043
873.380	232.787
873.508	228.809
873.637	255.681
873.765	233.234
873.893	292.170
874.021	243.511
874.149	232.106
874.277	241.255
874.405	231.362
874.533	240.170
874.662	1137.298
874.790	239.191
874.918	273.979
875.046	252.553
875.174	252.574
875.302	225.745
875.430	272.234
875.558	246.340
875.687	252.702
875.815	240.383
875.943	235.638
876.071	254.277
876.199	258.426
876.327	276.532
876.455	239.128
876.583	258.511
876.712	234.191
876.840	247.489
876.968	287.106
877.096	230.511
877.224	227.915
877.352	285.511
877.480	231.128
877.608	238.681
877.737	251.043
877.865	237.447
877.993	254.809
878.121	223.234
878.249	231.447
878.377	237.553
878.505	246.021
878.633	244.085
878.762	234.277
878.890	227.957
879.018	304.957
879.146	242.043
879.274	225.745
879.402	258.447
879.530	244.106
879.658	219.660
879.787	233.468
879.915	229.723
880.043	266.426
880.171	225.170
880.299	254.723
880.427	246.319
880.555	244.894
880.683	257.872
880.812	225.660
880.940	260.702
881.068	224.936
881.196	227.468
881.324	250.383
881.452	230.745
881.580	264.234
881.708	258.723
881.837	248.298
881.965	246.064
882.093	254.681
882.221	229.638
882.349	273.128
882.477	263.021
882.605	243.936
882.733	237.936
882.862	277.766
882.990	251.298
883.118	230.404
883.246	241.043
883.374	234.702
883.502	235.638
883.630	229.043
883.758	230.064
883.887	249.872
884.015	225.426
884.143	240.106
884.271	247.043
884.399	228.149
884.527	242.766
884.655	227.277
884.783	250.426
884.912	252.553
885.040	227.936
885.168	304.681
885.296	227.660
885.424	255.149
885.552	253.319
885.680	243.766
885.808	228.319
885.937	247.894
886.065	253.915
886.193	227.021
886.321	281.872
886.449	234.404
886.577	273.447
886.705	233.085
886.833	228.468
886.962	233.511
887.090	239.234
887.218	241.191
887.346	257.043
887.474	275.362
887.602	245.872
887.730	245.085
887.858	261.277
887.987	234.128
888.115	275.277
888.243	244.553
888.371	242.426
888.499	235.234
888.627	249.915
888.755	256.085
888.883	239.255
889.012	232.787
889.140	243.426
889.268	257.574
889.396	244.043
889.524	238.851
889.652	235.553
889.780	223.957
889.908	262.298
890.037	233.489
890.165	234.915
890.293	256.043
890.421	298.149
890.549	250.404
890.677	242.915
890.805	235.617
890.933	261.681
891.062	240.298
891.190	238.915
891.318	244.340
891.446	234.894
891.574	233.298
891.702	239.043
891.830	232.979
891.958	264.511
892.087	272.277
892.215	242.234
892.343	247.149
892.471	261.340
892.599	232.766
892.727	263.872
892.855	235.894
892.983	223.617
893.112	241.064
893.240	234.085
893.368	270.021
893.496	236.957
893.624	249.021
893.752	295.085
893.880	281.383
894.008	220.766
894.137	243.957
894.265	250.766
894.393	238.809
894.521	234.021
894.649	264.064
894.777	238.255
894.905	225.596
895.033	270.128
895.162	234.447
895.290	268.468
895.418	253.383
895.546	250.489
895.674	319.404
895.802	231.745
895.930	253.532
896.058	222.234
896.187	230.043
896.315	232.170
896.443	230.383
896.571	243.234
896.699	239.128
896.827	250.489
896.955	247.702
897.083	231.043
897.212	273.106
897.340	236.553
897.468	223.489
897.596	233.681
897.724	279.723
897.852	251.511
897.980	243.468
898.108	245.851
898.237	232.404
898.365	225.553
898.493	243.532
898.621	239.064
898.749	236.745
898.877	244.106
899.005	227.064
899.133	237.830
899.262	250.979
899.390	274.149
899.518	242.894
899.646	238.638
899.774	267.340
899.902	316.638
900.030	255.809
900.158	243.128
900.287	257.574
900.415	221.830
900.543	248.404
900.671	238.106
900.799	263.979
900.927	240.149
901.055	232.894
901.183	241.043
901.312	265.957
901.440	257.915
901.568	249.340
901.696	242.362
901.824	256.298
901.952	251.149
902.080	360.745
902.208	269.191
902.337	233.553
902.465	248.745
902.593	245.617
902.721	245.957
902.849	251.489
902.977	248.766
903.105	245.489
903.233	254.830
903.362	240.404
903.490	252.064
903.618	238.383
903.746	254.915
903.874	229.596
904.002	241.426
904.130	253.851
904.258	264.277
904.387	237.213
904.515	252.553
904.643	230.511
904.771	239.213
904.899	254.511
905.027	267.191
905.155	243.362
905.283	245.702
905.412	266.426
905.540	242.447
905.668	237.404
905.796	242.489
905.924	240.851
906.052	242.021
906.180	258.574
906.308	250.702
906.437	273.681
906.565	245.298
906.693	248.702
906.821	227.426
906.949	239.830
907.077	257.426
907.205	251.298
907.333	246.766
907.462	247.064
907.590	236.681
907.718	265.277
907.846	281.489
907.974	237.511
908.102	254.851
908.230	267.489
908.358	282.511
908.487	252.830
908.615	254.277
908.743	252.340
908.871	300.383
908.999	247.766
909.127	273.957
909.255	226.255
909.383	240.213
909.512	277.660
909.640	250.234
909.768	251.681
909.896	296.787
910.024	271.830
910.152	254.979
910.280	295.447
910.408	247.957
910.537	246.638
910.665	279.936
910.793	249.447
910.921	262.532
911.049	239.170
911.177	236.787
911.305	264.894
911.433	254.851
911.562	249.085
911.690	255.979
911.818	302.426
911.946	248.128
912.074	265.447
912.202	286.404
912.330	245.362
912.458	252.553
912.587	272.553
912.715	274.426
912.843	280.234
912.971	265.447
913.099	286.766
913.227	270.128
913.355	250.617
913.483	274.830
913.612	270.319
913.740	396.489
913.868	270.298
