90pol_70_80_at_750.00nm_cut_at_984.50Y_01.dat
24.04.2023
10:59:22
cut middle at Y: 984.50
top cursor: 1008 down cursor: 961 mean of: 47 lines , 2560 datapoints
wavelength(nm)	intensity[arb. units]
585.996	17655.362
586.124	17180.511
586.252	17031.574
586.380	17080.064
586.508	17115.681
586.637	17214.532
586.765	17304.766
586.893	17299.468
587.021	17377.809
587.149	17446.596
587.277	17393.021
587.405	17553.447
587.533	17475.681
587.662	17684.617
587.790	17639.170
587.918	17548.723
588.046	17631.128
588.174	17606.106
588.302	17780.383
588.430	17717.532
588.558	17708.915
588.687	17785.511
588.815	17693.340
588.943	17698.319
589.071	17748.298
589.199	17786.340
589.327	17798.085
589.455	17707.702
589.583	17871.234
589.712	17887.064
589.840	17932.404
589.968	17850.936
590.096	17925.021
590.224	17951.489
590.352	17955.723
590.480	17961.021
590.608	17933.468
590.737	18021.489
590.865	18042.106
590.993	17988.851
591.121	18061.149
591.249	18064.745
591.377	18077.681
591.505	18159.298
591.633	18154.915
591.762	18172.894
591.890	18368.340
592.018	18213.362
592.146	18321.170
592.274	18276.426
592.402	18288.234
592.530	18406.064
592.658	18562.191
592.787	18430.298
592.915	18655.957
593.043	18543.957
593.171	18589.085
593.299	18683.021
593.427	18720.596
593.555	18860.447
593.683	18804.915
593.812	18905.936
593.940	18951.000
594.068	19033.255
594.196	19182.872
594.324	19209.617
594.452	19227.170
594.580	19375.681
594.708	19381.489
594.837	19394.426
594.965	19469.574
595.093	19558.809
595.221	19586.362
595.349	19794.404
595.477	19757.851
595.605	19785.851
595.733	19775.809
595.862	20056.191
595.990	19965.319
596.118	19985.830
596.246	20153.872
596.374	20077.404
596.502	20143.213
596.630	20216.085
596.758	20250.043
596.887	20246.128
597.015	20333.404
597.143	20415.191
597.271	20477.617
597.399	20395.085
597.527	20429.085
597.655	20528.404
597.783	20532.106
597.912	20508.191
598.040	20527.596
598.168	20626.979
598.296	20561.191
598.424	20561.340
598.552	20691.234
598.680	20553.319
598.808	20752.447
598.937	20627.340
599.065	20582.213
599.193	20749.809
599.321	20741.404
599.449	20677.915
599.577	20617.723
599.705	20830.383
599.833	20693.191
599.962	20759.298
600.090	20755.851
600.218	20883.298
600.346	20954.979
600.474	20866.702
600.602	20971.149
600.730	21001.596
600.858	21076.021
600.987	21264.851
601.115	21233.106
601.243	21267.489
601.371	21310.149
601.499	21435.617
601.627	21508.511
601.755	21543.021
601.883	21629.979
602.012	21824.128
602.140	21762.255
602.268	22006.170
602.396	21909.872
602.524	22152.468
602.652	22157.362
602.780	22256.766
602.908	22318.085
603.037	22458.702
603.165	22578.809
603.293	22727.872
603.421	22789.340
603.549	22884.723
603.677	23000.277
603.805	23032.213
603.933	23258.979
604.062	23342.872
604.190	23478.000
604.318	23625.766
604.446	23622.766
604.574	23786.447
604.702	23867.489
604.830	23966.426
604.958	24063.574
605.087	24151.979
605.215	24229.936
605.343	24316.809
605.471	24435.702
605.599	24535.234
605.727	24595.532
605.855	24685.447
605.983	24710.660
606.112	24839.255
606.240	24849.170
606.368	24964.319
606.496	25073.532
606.624	25086.915
606.752	25119.532
606.880	25274.957
607.008	25327.383
607.137	25319.043
607.265	25176.957
607.393	25243.128
607.521	25349.468
607.649	25271.021
607.777	25282.766
607.905	25321.426
608.033	25291.085
608.162	25336.000
608.290	25365.511
608.418	25292.234
608.546	25386.191
608.674	25310.277
608.802	25402.362
608.930	25345.979
609.058	25432.681
609.187	25518.426
609.315	25532.213
609.443	25471.574
609.571	25553.596
609.699	25450.170
609.827	25565.915
609.955	25609.851
610.083	25497.723
610.212	25665.106
610.340	25579.234
610.468	25635.915
610.596	25700.809
610.724	25681.617
610.852	25700.596
610.980	25703.255
611.108	25825.681
611.237	25790.362
611.365	25809.702
611.493	25912.957
611.621	26005.745
611.749	26099.000
611.877	26178.787
612.005	26206.957
612.133	26287.191
612.262	26434.064
612.390	26444.809
612.518	26502.851
612.646	26673.021
612.774	26602.830
612.902	26782.340
613.030	26936.426
613.158	27063.000
613.287	27102.936
613.415	27115.447
613.543	27167.745
613.671	27163.085
613.799	27320.362
613.927	27198.638
614.055	27319.745
614.183	27465.426
614.312	27439.830
614.440	27608.723
614.568	27638.723
614.696	27788.532
614.824	28025.596
614.952	27903.617
615.080	28005.617
615.208	28135.085
615.337	28201.660
615.465	28331.745
615.593	28531.447
615.721	28734.447
615.849	28860.064
615.977	28849.213
616.105	28852.681
616.233	28851.702
616.362	28967.638
616.490	28990.362
616.618	29043.106
616.746	29183.000
616.874	29239.979
617.002	29328.298
617.130	29272.511
617.258	29470.362
617.387	29489.915
617.515	29481.660
617.643	29595.957
617.771	29539.340
617.899	29582.809
618.027	29742.426
618.155	29834.362
618.283	29788.766
618.412	29747.043
618.540	29958.936
618.668	29931.638
618.796	30030.404
618.924	30114.638
619.052	30081.043
619.180	30102.894
619.308	30139.851
619.437	30231.809
619.565	30226.149
619.693	30169.064
619.821	30222.702
619.949	30285.128
620.077	30423.277
620.205	30444.574
620.333	30459.957
620.462	30547.128
620.590	30554.617
620.718	30457.511
620.846	30568.936
620.974	30527.681
621.102	30572.255
621.230	30661.277
621.358	30781.043
621.487	30672.043
621.615	30597.617
621.743	30783.766
621.871	30781.936
621.999	30810.596
622.127	30790.638
622.255	30851.872
622.383	30855.745
622.512	30771.596
622.640	31029.532
622.768	30806.787
622.896	30854.255
623.024	30866.766
623.152	30969.085
623.280	30917.362
623.408	30908.979
623.537	30955.021
623.665	30947.511
623.793	30885.404
623.921	30903.298
624.049	30988.255
624.177	30901.532
624.305	30946.213
624.433	30978.745
624.562	31042.979
624.690	30997.787
624.818	31070.319
624.946	31174.064
625.074	31016.383
625.202	31053.809
625.330	31010.340
625.458	31093.383
625.587	31035.553
625.715	31058.809
625.843	31107.766
625.971	31168.319
626.099	31111.957
626.227	31147.660
626.355	31078.000
626.483	31131.340
626.612	31144.404
626.740	31191.191
626.868	31269.638
626.996	31197.319
627.124	31260.830
627.252	31253.723
627.380	31342.489
627.508	31365.617
627.637	31375.894
627.765	31419.851
627.893	31514.638
628.021	31566.894
628.149	31876.340
628.277	31890.340
628.405	31941.277
628.533	31704.064
628.662	31686.234
628.790	31767.936
628.918	31847.702
629.046	31841.979
629.174	32009.234
629.302	32366.574
629.430	32222.830
629.558	32126.702
629.687	32145.851
629.815	32210.064
629.943	32241.064
630.071	32322.149
630.199	32363.723
630.327	32450.723
630.455	32554.447
630.583	32601.872
630.712	32588.234
630.840	32635.511
630.968	32738.532
631.096	32629.213
631.224	32738.298
631.352	32740.532
631.480	32795.170
631.608	32841.000
631.737	32920.809
631.865	33046.149
631.993	32893.298
632.121	33033.170
632.249	33005.128
632.377	33026.979
632.505	33081.936
632.633	32895.809
632.762	32868.894
632.890	33074.702
633.018	32908.809
633.146	33121.426
633.274	32965.468
633.402	32938.000
633.530	32968.319
633.658	33110.787
633.787	32843.149
633.915	32926.426
634.043	32825.681
634.171	32910.617
634.299	32850.064
634.427	32858.809
634.555	32781.915
634.683	32681.809
634.812	32737.277
634.940	32658.638
635.068	32563.021
635.196	32638.340
635.324	32538.191
635.452	32627.234
635.580	32530.574
635.708	32482.830
635.837	32434.000
635.965	32301.511
636.093	32279.277
636.221	32255.043
636.349	32264.979
636.477	32168.489
636.605	32312.362
636.733	32020.872
636.862	32002.851
636.990	32049.043
637.118	32007.404
637.246	31962.915
637.374	31901.596
637.502	31885.809
637.630	31805.234
637.758	31811.660
637.887	31703.277
638.015	31689.043
638.143	31726.723
638.271	31554.574
638.399	31559.596
638.527	31573.383
638.655	31538.532
638.783	31677.277
638.912	31528.617
639.040	31431.000
639.168	31534.851
639.296	31464.191
639.424	31584.447
639.552	31450.213
639.680	31612.489
639.808	31442.106
639.937	31425.340
640.065	31327.170
640.193	31435.553
640.321	31370.553
640.449	31369.574
640.577	31421.149
640.705	31427.936
640.833	31381.362
640.962	31335.957
641.090	31400.128
641.218	31229.957
641.346	31376.170
641.474	31414.149
641.602	31356.255
641.730	31424.213
641.858	31450.681
641.987	31477.702
642.115	31434.362
642.243	31461.979
642.371	31445.255
642.499	31451.596
642.627	31569.936
642.755	31529.128
642.883	31663.255
643.012	31566.298
643.140	31530.426
643.268	31520.340
643.396	31619.553
643.524	31723.745
643.652	31764.766
643.780	31613.064
643.908	31701.936
644.037	31744.766
644.165	31688.553
644.293	31700.362
644.421	31739.936
644.549	31766.553
644.677	31720.255
644.805	31678.681
644.933	31669.766
645.062	31670.787
645.190	31687.468
645.318	31718.745
645.446	31703.915
645.574	31634.553
645.702	31657.574
645.830	31864.000
645.958	31575.426
646.087	31791.426
646.215	31551.830
646.343	31709.787
646.471	31513.511
646.599	31563.745
646.727	31472.468
646.855	31425.000
646.983	31501.553
647.112	31435.404
647.240	31465.553
647.368	31362.404
647.496	31316.745
647.624	31191.404
647.752	31134.362
647.880	31137.872
648.008	31128.617
648.137	31058.915
648.265	31021.957
648.393	30985.489
648.521	30955.426
648.649	30890.596
648.777	30909.128
648.905	30754.766
649.033	30745.170
649.162	30692.681
649.290	30662.957
649.418	30564.851
649.546	30594.170
649.674	30550.851
649.802	30393.745
649.930	30596.766
650.058	30377.723
650.187	30224.489
650.315	30212.340
650.443	30273.319
650.571	30131.596
650.699	30170.596
650.827	30075.979
650.955	30050.383
651.083	30038.894
651.212	30015.553
651.340	29975.213
651.468	29901.915
651.596	29745.979
651.724	29776.830
651.852	29720.979
651.980	29671.723
652.108	29694.319
652.237	29579.319
652.365	29592.362
652.493	29532.043
652.621	29577.021
652.749	29550.723
652.877	29401.957
653.005	29407.106
653.133	29384.745
653.262	29405.532
653.390	29328.064
653.518	29323.000
653.646	29253.872
653.774	29361.362
653.902	29165.064
654.030	29131.319
654.158	29019.277
654.287	29049.319
654.415	28992.362
654.543	28972.043
654.671	28938.170
654.799	28961.340
654.927	28796.404
655.055	28759.447
655.183	28818.085
655.312	28719.574
655.440	28670.957
655.568	28612.213
655.696	28672.340
655.824	28698.638
655.952	28531.362
656.080	28400.043
656.208	28464.553
656.337	28373.532
656.465	28365.851
656.593	28315.426
656.721	28116.872
656.849	28093.128
656.977	28033.660
657.105	28001.043
657.233	27963.723
657.362	27854.894
657.490	27765.447
657.618	27854.574
657.746	27710.085
657.874	27661.851
658.002	27672.085
658.130	27423.511
658.258	27431.277
658.387	27430.447
658.515	27312.277
658.643	27305.000
658.771	27298.426
658.899	27201.362
659.027	27172.234
659.155	27133.957
659.283	27225.936
659.412	27018.745
659.540	27063.319
659.668	26887.872
659.796	26804.489
659.924	26872.872
660.052	26745.191
660.180	26639.064
660.308	26531.106
660.437	26603.915
660.565	26527.809
660.693	26461.085
660.821	26450.149
660.949	26346.596
661.077	26292.638
661.205	26248.957
661.333	26248.191
661.462	26328.809
661.590	26178.298
661.718	26301.511
661.846	26113.149
661.974	26168.319
662.102	25990.340
662.230	25952.851
662.358	25896.426
662.487	25911.149
662.615	25832.745
662.743	25891.660
662.871	25842.340
662.999	25772.936
663.127	25769.277
663.255	25803.851
663.383	25761.660
663.512	25659.234
663.640	25754.404
663.768	25580.000
663.896	25708.936
664.024	25667.000
664.152	25596.106
664.280	25720.128
664.408	25652.660
664.537	25622.277
664.665	25587.872
664.793	25485.681
664.921	25430.106
665.049	25430.255
665.177	25458.064
665.305	25478.234
665.433	25388.830
665.562	25414.255
665.690	25439.660
665.818	25610.681
665.946	25375.894
666.074	25291.213
666.202	25357.447
666.330	25332.830
666.458	25324.447
666.587	25264.830
666.715	25259.426
666.843	25213.915
666.971	25236.489
667.099	25163.128
667.227	25236.340
667.355	25165.702
667.483	25126.170
667.612	25048.298
667.740	25151.170
667.868	25132.085
667.996	25030.043
668.124	24943.128
668.252	24943.638
668.380	24943.957
668.508	24856.617
668.637	24806.553
668.765	24797.404
668.893	24764.255
669.021	24651.149
669.149	24645.638
669.277	24691.128
669.405	24573.404
669.533	24517.957
669.662	24744.915
669.790	24533.404
669.918	24532.213
670.046	24323.383
670.174	24339.043
670.302	24301.043
670.430	24204.574
670.558	24176.809
670.687	24056.638
670.815	24133.936
670.943	23977.255
671.071	23915.000
671.199	23852.043
671.327	23785.489
671.455	23709.979
671.583	23603.021
671.712	23746.021
671.840	23639.362
671.968	23402.723
672.096	23315.638
672.224	23249.234
672.352	23357.404
672.480	23161.723
672.608	23065.277
672.737	22909.468
672.865	23014.000
672.993	22852.723
673.121	22726.426
673.249	22694.957
673.377	22618.660
673.505	22436.723
673.633	22402.915
673.762	22347.872
673.890	22259.128
674.018	22451.128
674.146	22104.064
674.274	22069.532
674.402	22148.340
674.530	21948.936
674.658	21820.298
674.787	21718.745
674.915	21675.787
675.043	21687.723
675.171	21551.191
675.299	21463.915
675.427	21399.043
675.555	21262.000
675.683	21218.489
675.812	21168.447
675.940	21070.638
676.068	21014.979
676.196	20887.787
676.324	20872.809
676.452	20746.745
676.580	20650.128
676.708	20631.277
676.837	20566.426
676.965	20488.426
677.093	20375.298
677.221	20300.745
677.349	20329.191
677.477	20209.681
677.605	20095.915
677.733	20110.149
677.862	19892.170
677.990	19878.979
678.118	19785.128
678.246	19735.511
678.374	19788.979
678.502	19585.191
678.630	19626.766
678.758	19471.745
678.887	19401.170
679.015	19365.426
679.143	19303.085
679.271	19208.681
679.399	19210.234
679.527	19207.043
679.655	19036.426
679.783	19096.085
679.912	19003.489
680.040	18873.851
680.168	18865.915
680.296	18786.404
680.424	18709.191
680.552	18703.681
680.680	18727.553
680.808	18580.277
680.937	18534.085
681.065	18519.511
681.193	18495.447
681.321	18456.149
681.449	18389.936
681.577	18322.043
681.705	18325.426
681.833	18242.660
681.962	18106.319
682.090	18291.957
682.218	18121.468
682.346	18023.128
682.474	18050.702
682.602	18001.234
682.730	18033.830
682.858	17837.830
682.987	17950.213
683.115	17845.553
683.243	17762.191
683.371	17758.106
683.499	17781.766
683.627	17756.915
683.755	17742.106
683.883	17756.447
684.012	17592.064
684.140	17551.383
684.268	17498.340
684.396	17559.383
684.524	17472.340
684.652	17545.255
684.780	17376.277
684.908	17387.787
685.037	17288.660
685.165	17267.447
685.293	17209.957
685.421	17236.723
685.549	17092.936
685.677	17018.191
685.805	17129.106
685.933	17019.532
686.062	16903.319
686.190	16811.809
686.318	16930.936
686.446	16852.532
686.574	16736.489
686.702	16745.340
686.830	16647.936
686.958	16634.128
687.087	16557.149
687.215	16539.851
687.343	16437.617
687.471	16402.340
687.599	16312.000
687.727	16502.957
687.855	16288.149
687.983	16238.511
688.112	16249.149
688.240	16144.872
688.368	16074.979
688.496	16041.468
688.624	16030.213
688.752	15884.362
688.880	15842.447
689.008	15847.106
689.137	15788.553
689.265	15695.596
689.393	15656.511
689.521	15572.957
689.649	15581.702
689.777	15512.064
689.905	15448.277
690.033	15411.362
690.162	15363.021
690.290	15283.702
690.418	15183.851
690.546	15246.745
690.674	15184.128
690.802	15033.596
690.930	15012.043
691.058	14978.723
691.187	14831.319
691.315	14780.277
691.443	14889.277
691.571	14708.298
691.699	14634.447
691.827	14627.277
691.955	14542.830
692.083	14479.660
692.212	14542.128
692.340	14372.191
692.468	14309.149
692.596	14268.000
692.724	14353.872
692.852	14168.149
692.980	14168.064
693.108	14052.000
693.237	13960.809
693.365	13961.362
693.493	13815.766
693.621	13818.043
693.749	13755.298
693.877	13711.745
694.005	13734.191
694.133	13633.617
694.262	13546.723
694.390	13432.617
694.518	13438.255
694.646	13440.000
694.774	13362.213
694.902	13475.021
695.030	13307.170
695.158	13151.532
695.287	13146.638
695.415	13125.660
695.543	13030.234
695.671	13078.149
695.799	12982.957
695.927	12897.766
696.055	12862.191
696.183	12756.404
696.312	12764.255
696.440	12885.277
696.568	12754.957
696.696	12657.021
696.824	12570.894
696.952	12508.851
697.080	12485.787
697.208	12343.872
697.337	12429.021
697.465	12327.915
697.593	12230.213
697.721	12221.000
697.849	12156.234
697.977	12099.362
698.105	12119.255
698.233	11971.872
698.362	11920.830
698.490	11945.894
698.618	11820.085
698.746	11887.596
698.874	11783.745
699.002	11927.617
699.130	11721.489
699.258	11622.681
699.387	11539.809
699.515	11540.745
699.643	11473.851
699.771	11502.468
699.899	11376.043
700.027	11328.596
700.155	11251.745
700.283	11222.532
700.412	11183.255
700.540	11059.213
700.668	11023.319
700.796	10947.489
700.924	10907.936
701.052	10863.957
701.180	10921.745
701.308	10740.553
701.437	10633.043
701.565	10659.553
701.693	10530.681
701.821	10542.383
701.949	10526.064
702.077	10433.340
702.205	10331.553
702.333	10367.043
702.462	10236.702
702.590	10196.660
702.718	10183.277
702.846	10093.149
702.974	10014.234
703.102	9993.745
703.230	10022.681
703.358	9946.851
703.487	9797.085
703.615	9965.383
703.743	9724.617
703.871	9670.979
703.999	9667.298
704.127	9719.149
704.255	9430.638
704.383	9588.766
704.512	9409.383
704.640	9403.638
704.768	9236.681
704.896	9292.362
705.024	9178.532
705.152	9199.766
705.280	9099.085
705.408	9002.128
705.537	8955.638
705.665	8902.489
705.793	8852.191
705.921	8741.277
706.049	8756.553
706.177	8655.532
706.305	8666.851
706.433	8720.787
706.562	8558.915
706.690	8497.979
706.818	8372.894
706.946	8647.043
707.074	8399.170
707.202	8263.064
707.330	8313.553
707.458	8218.149
707.587	8135.574
707.715	8144.234
707.843	8109.404
707.971	8055.979
708.099	8035.149
708.227	7955.979
708.355	7914.957
708.483	7868.830
708.612	7796.064
708.740	7819.340
708.868	7786.213
708.996	7718.957
709.124	7691.298
709.252	7613.936
709.380	7561.043
709.508	7616.574
709.637	7483.085
709.765	7467.255
709.893	7468.532
710.021	7425.383
710.149	7337.830
710.277	7403.511
710.405	7305.106
710.533	7288.383
710.662	7216.255
710.790	7199.362
710.918	7135.404
711.046	7144.298
711.174	7077.532
711.302	7109.213
711.430	7112.681
711.558	6989.404
711.687	6942.532
711.815	6971.128
711.943	6922.043
712.071	6884.957
712.199	6908.255
712.327	6853.915
712.455	6768.638
712.583	6797.106
712.712	6775.894
712.840	6728.894
712.968	6697.660
713.096	6701.404
713.224	6586.085
713.352	6599.723
713.480	6566.660
713.608	6528.277
713.737	6500.468
713.865	6535.404
713.993	6482.936
714.121	6410.830
714.249	6424.170
714.377	6460.851
714.505	6383.106
714.633	6480.255
714.762	6317.426
714.890	6273.745
715.018	6260.277
715.146	6206.681
715.274	6252.468
715.402	6328.468
715.530	6241.489
715.658	6082.872
715.787	6079.426
715.915	6255.021
716.043	6018.894
716.171	6073.957
716.299	6071.957
716.427	5998.830
716.555	5933.043
716.683	5881.766
716.812	5863.957
716.940	5906.596
717.068	5759.021
717.196	5965.723
717.324	5896.851
717.452	5764.255
717.580	5728.340
717.708	5701.660
717.837	5720.255
717.965	5615.915
718.093	5623.787
718.221	5533.234
718.349	5606.532
718.477	5577.979
718.605	5560.362
718.733	5478.596
718.862	5447.872
718.990	5396.766
719.118	5437.681
719.246	5341.426
719.374	5420.660
719.502	5355.362
719.630	5441.149
719.758	5239.149
719.887	5205.043
720.015	5390.511
720.143	5173.745
720.271	5135.745
720.399	5148.915
720.527	5144.404
720.655	5104.106
720.783	5121.574
720.912	4997.809
721.040	5006.660
721.168	4945.426
721.296	4971.298
721.424	4914.532
721.552	4818.638
721.680	4797.043
721.808	4831.404
721.937	4781.106
722.065	4862.191
722.193	4859.149
722.321	4668.298
722.449	4658.872
722.577	4662.298
722.705	4589.404
722.833	4638.638
722.962	4608.298
723.090	4497.106
723.218	4467.723
723.346	4449.426
723.474	4404.809
723.602	4562.915
723.730	4477.170
723.858	4548.617
723.987	4415.936
724.115	4403.149
724.243	4325.213
724.371	4280.596
724.499	4320.660
724.627	4181.149
724.755	4179.064
724.883	4171.787
725.012	4139.447
725.140	4178.617
725.268	4112.362
725.396	4021.532
725.524	3998.021
725.652	4025.596
725.780	3973.638
725.908	4044.106
726.037	4124.000
726.165	3907.511
726.293	3865.617
726.421	3860.553
726.549	3802.064
726.677	3824.830
726.805	3802.340
726.933	3760.404
727.062	3782.766
727.190	3719.574
727.318	3650.426
727.446	3697.681
727.574	3673.660
727.702	3759.872
727.830	3587.681
727.958	3660.277
728.087	3594.511
728.215	3667.106
728.343	3606.809
728.471	3534.021
728.599	3480.489
728.727	3580.957
728.855	3458.723
728.983	3459.787
729.112	3414.851
729.240	3395.787
729.368	3411.340
729.496	3386.277
729.624	3384.723
729.752	3348.064
729.880	3351.894
730.008	3268.383
730.137	3283.702
730.265	3460.574
730.393	3240.234
730.521	3344.043
730.649	3189.191
730.777	3188.851
730.905	3157.872
731.033	3233.277
731.162	3367.596
731.290	3250.553
731.418	3362.213
731.546	3301.617
731.674	3150.638
731.802	3191.021
731.930	3028.660
732.058	3000.723
732.187	2989.809
732.315	2993.298
732.443	2988.191
732.571	3113.766
732.699	2999.489
732.827	3000.319
732.955	2934.319
733.083	2882.745
733.212	2951.489
733.340	2948.489
733.468	2950.766
733.596	2810.383
733.724	2836.213
733.852	2799.043
733.980	2795.894
734.108	2994.255
734.237	2844.660
734.365	2847.681
734.493	2742.234
734.621	2704.574
734.749	2705.809
734.877	2714.723
735.005	2761.234
735.133	2775.660
735.262	2771.043
735.390	2652.021
735.518	2800.638
735.646	2596.404
735.774	2606.404
735.902	2624.043
736.030	2603.064
736.158	2653.851
736.287	2534.298
736.415	2763.277
736.543	2574.447
736.671	2543.957
736.799	2551.915
736.927	2602.468
737.055	2529.191
737.183	2595.021
737.312	2574.447
737.440	2563.426
737.568	2543.277
737.696	2533.213
737.824	2540.383
737.952	2520.298
738.080	2493.426
738.208	2530.574
738.337	2478.489
738.465	2538.830
738.593	2464.766
738.721	2413.447
738.849	2424.021
738.977	2421.277
739.105	2416.936
739.233	2417.745
739.362	2390.894
739.490	2361.000
739.618	2339.404
739.746	2362.617
739.874	2346.638
740.002	2299.255
740.130	2284.723
740.258	2308.553
740.387	2289.894
740.515	2273.362
740.643	2226.957
740.771	2283.021
740.899	2226.106
741.027	2211.787
741.155	2238.128
741.283	2178.702
741.412	2195.021
741.540	2197.383
741.668	2166.277
741.796	2156.681
741.924	2193.404
742.052	2136.787
742.180	2093.340
742.308	2125.596
742.437	2111.128
742.565	2100.915
742.693	2100.915
742.821	2047.277
742.949	2109.298
743.077	2077.894
743.205	2046.128
743.333	2044.298
743.462	2046.213
743.590	2057.553
743.718	2004.043
743.846	2024.915
743.974	2006.681
744.102	1970.936
744.230	1988.043
744.358	1945.894
744.487	1940.489
744.615	1951.851
744.743	1928.596
744.871	1908.809
744.999	1950.255
745.127	1873.745
745.255	1876.340
745.383	1895.426
745.512	1870.489
745.640	1829.447
745.768	1871.617
745.896	1842.191
746.024	1849.064
746.152	1821.106
746.280	1800.106
746.408	1791.745
746.537	1784.000
746.665	1791.809
746.793	1778.447
746.921	1753.681
747.049	1787.787
747.177	1776.936
747.305	1788.021
747.433	1792.426
747.562	1711.596
747.690	1706.766
747.818	1715.787
747.946	1706.064
748.074	1788.894
748.202	1709.298
748.330	1665.957
748.458	1683.404
748.587	1653.149
748.715	1642.511
748.843	1640.277
748.971	1636.617
749.099	1635.894
749.227	1639.915
749.355	1615.043
749.483	1618.489
749.612	1594.191
749.740	1574.745
749.868	1574.553
749.996	1588.617
750.124	1566.170
750.252	1579.191
750.380	1576.532
750.508	1527.787
750.637	1512.426
750.765	1544.681
750.893	1537.787
751.021	1560.213
751.149	1533.638
751.277	1537.660
751.405	1554.383
751.533	1568.638
751.662	1475.723
751.790	1510.809
751.918	1461.404
752.046	1472.745
752.174	1455.021
752.302	1496.128
752.430	1449.596
752.558	1416.255
752.687	1422.128
752.815	1429.149
752.943	1405.277
753.071	1389.957
753.199	1381.979
753.327	1431.766
753.455	1390.511
753.583	1357.213
753.712	1351.851
753.840	1347.723
753.968	1345.830
754.096	1348.234
754.224	1335.511
754.352	1314.511
754.480	1321.553
754.608	1309.596
754.737	1325.766
754.865	1340.000
754.993	1295.957
755.121	1266.851
755.249	1345.766
755.377	1287.234
755.505	1271.553
755.633	1287.638
755.762	1239.064
755.890	1326.468
756.018	1301.234
756.146	1222.426
756.274	1222.681
756.402	1219.702
756.530	1232.468
756.658	1231.106
756.787	1241.787
756.915	1176.213
757.043	1221.255
757.171	1197.085
757.299	1198.447
757.427	1183.915
757.555	1155.702
757.683	1207.362
757.812	1143.085
757.940	1146.532
758.068	1138.362
758.196	1122.340
758.324	1111.553
758.452	1213.660
758.580	1122.830
758.708	1136.319
758.837	1102.723
758.965	1201.170
759.093	1092.957
759.221	1080.872
759.349	1092.234
759.477	1081.021
759.605	1065.936
759.733	1060.532
759.862	1067.915
759.990	1054.149
760.118	1058.340
760.246	1034.362
760.374	1058.468
760.502	1050.404
760.630	1037.426
760.758	1021.468
760.887	992.660
761.015	1009.617
761.143	982.234
761.271	994.298
761.399	981.277
761.527	991.319
761.655	975.915
761.783	974.191
761.912	961.234
762.040	945.979
762.168	1002.468
762.296	967.468
762.424	945.404
762.552	964.851
762.680	1006.362
762.808	925.191
762.937	943.979
763.065	964.532
763.193	970.149
763.321	928.149
763.449	889.021
763.577	902.404
763.705	906.660
763.833	973.702
763.962	886.319
764.090	885.830
764.218	907.085
764.346	896.191
764.474	860.362
764.602	881.660
764.730	860.957
764.858	874.043
764.987	856.809
765.115	907.511
765.243	848.979
765.371	836.426
765.499	817.553
765.627	835.021
765.755	814.213
765.883	835.596
766.012	822.915
766.140	803.426
766.268	820.213
766.396	786.745
766.524	797.681
766.652	789.234
766.780	790.702
766.908	805.064
767.037	793.511
767.165	783.277
767.293	839.213
767.421	778.298
767.549	784.213
767.677	785.298
767.805	775.383
767.933	770.511
768.062	787.830
768.190	759.340
768.318	740.532
768.446	766.723
768.574	772.064
768.702	767.106
768.830	733.936
768.958	742.702
769.087	728.532
769.215	725.213
769.343	720.702
769.471	708.745
769.599	753.638
769.727	735.064
769.855	719.340
769.983	710.191
770.112	693.319
770.240	691.617
770.368	702.617
770.496	685.319
770.624	697.553
770.752	703.404
770.880	718.638
771.008	677.915
771.137	676.830
771.265	710.872
771.393	696.851
771.521	672.638
771.649	660.809
771.777	661.255
771.905	665.809
772.033	674.234
772.162	677.532
772.290	654.106
772.418	702.319
772.546	662.319
772.674	643.362
772.802	662.617
772.930	688.447
773.058	636.064
773.187	654.596
773.315	636.149
773.443	635.830
773.571	641.553
773.699	616.021
773.827	620.830
773.955	656.426
774.083	636.489
774.212	616.128
774.340	643.468
774.468	611.234
774.596	618.638
774.724	612.362
774.852	610.702
774.980	608.787
775.108	594.362
775.237	596.915
775.365	607.447
775.493	599.340
775.621	602.809
775.749	594.660
775.877	588.596
776.005	580.617
776.133	607.660
776.262	599.383
776.390	571.532
776.518	612.957
776.646	589.447
776.774	579.468
776.902	580.340
777.030	564.064
777.158	583.106
777.287	587.553
777.415	548.298
777.543	560.809
777.671	548.894
777.799	542.553
777.927	546.809
778.055	559.915
778.183	542.043
778.312	527.234
778.440	541.404
778.568	550.702
778.696	528.426
778.824	546.149
778.952	536.489
779.080	517.532
779.208	566.936
779.337	547.894
779.465	533.681
779.593	522.170
779.721	541.553
779.849	529.319
779.977	515.426
780.105	509.106
780.233	527.596
780.362	538.809
780.490	553.213
780.618	514.596
780.746	510.064
780.874	492.191
781.002	515.936
781.130	488.787
781.258	490.064
781.387	501.957
781.515	529.085
781.643	488.979
781.771	525.553
781.899	483.468
782.027	531.106
782.155	491.383
782.283	490.681
782.412	477.362
782.540	482.830
782.668	506.383
782.796	455.894
782.924	495.638
783.052	454.596
783.180	499.553
783.308	471.617
783.437	467.766
783.565	475.702
783.693	474.489
783.821	471.277
783.949	456.085
784.077	474.191
784.205	459.191
784.333	505.043
784.462	436.574
784.590	465.596
784.718	463.447
784.846	442.766
784.974	469.277
785.102	495.426
785.230	453.532
785.358	501.043
785.487	447.809
785.615	453.106
785.743	441.468
785.871	446.957
785.999	434.000
786.127	423.596
786.255	442.915
786.383	462.298
786.512	463.553
786.640	443.915
786.768	452.064
786.896	427.681
787.024	428.766
787.152	428.511
787.280	425.532
787.408	418.191
787.537	447.511
787.665	423.553
787.793	450.383
787.921	432.255
788.049	430.362
788.177	407.404
788.305	412.021
788.433	436.021
788.562	416.234
788.690	402.404
788.818	425.277
788.946	428.638
789.074	401.660
789.202	424.064
789.330	427.021
789.458	403.638
789.587	466.043
789.715	414.191
789.843	406.766
789.971	404.574
790.099	405.511
790.227	413.149
790.355	405.000
790.483	420.957
790.612	402.191
790.740	406.340
790.868	414.915
790.996	412.362
791.124	397.532
791.252	395.979
791.380	405.617
791.508	406.447
791.637	396.766
791.765	387.745
791.893	385.681
792.021	395.404
792.149	387.872
792.277	398.766
792.405	378.383
792.533	401.532
792.662	366.128
792.790	377.745
792.918	402.000
793.046	382.383
793.174	403.957
793.302	385.660
793.430	383.638
793.558	370.085
793.687	387.106
793.815	378.787
793.943	400.532
794.071	402.128
794.199	373.213
794.327	387.021
794.455	460.277
794.583	470.106
794.712	370.468
794.840	377.638
794.968	382.404
795.096	391.255
795.224	357.383
795.352	366.787
795.480	405.638
795.608	376.468
795.737	373.000
795.865	361.426
795.993	359.787
796.121	353.319
796.249	361.574
796.377	379.511
796.505	373.085
796.633	351.043
796.762	353.851
796.890	366.085
797.018	378.149
797.146	351.872
797.274	344.319
797.402	358.021
797.530	366.915
797.658	343.638
797.787	395.128
797.915	354.319
798.043	369.617
798.171	339.000
798.299	356.170
798.427	342.489
798.555	349.106
798.683	332.085
798.812	353.043
798.940	402.638
799.068	347.170
799.196	379.809
799.324	336.957
799.452	347.383
799.580	334.936
799.708	399.319
799.837	326.787
799.965	337.213
800.093	351.170
800.221	318.830
800.349	345.277
800.477	335.574
800.605	339.936
800.733	345.383
800.862	340.660
800.990	376.681
801.118	319.000
801.246	318.681
801.374	342.489
801.502	337.745
801.630	322.787
801.758	329.894
801.887	351.702
802.015	321.957
802.143	314.447
802.271	345.596
802.399	320.234
802.527	314.213
802.655	355.213
802.783	367.681
802.912	332.872
803.040	325.489
803.168	307.298
803.296	302.404
803.424	322.000
803.552	313.213
803.680	317.447
803.808	324.532
803.937	311.085
804.065	311.830
804.193	318.532
804.321	362.660
804.449	297.404
804.577	303.511
804.705	316.213
804.833	344.745
804.962	302.319
805.090	312.383
805.218	319.170
805.346	324.319
805.474	324.170
805.602	337.106
805.730	300.489
805.858	291.574
805.987	311.872
806.115	311.511
806.243	310.979
806.371	340.106
806.499	411.064
806.627	442.617
806.755	409.468
806.883	313.489
807.012	298.383
807.140	323.596
807.268	318.489
807.396	320.234
807.524	289.213
807.652	295.681
807.780	367.872
807.908	292.638
808.037	340.298
808.165	325.702
808.293	306.043
808.421	346.298
808.549	287.979
808.677	298.383
808.805	337.638
808.933	302.085
809.062	317.872
809.190	348.979
809.318	298.043
809.446	295.809
809.574	352.830
809.702	289.149
809.830	306.915
809.958	306.787
810.087	306.149
810.215	320.277
810.343	312.979
810.471	303.979
810.599	292.851
810.727	293.957
810.855	279.340
810.983	280.809
811.112	297.383
811.240	288.787
811.368	305.255
811.496	335.872
811.624	307.170
811.752	287.064
811.880	303.213
812.008	282.213
812.137	309.213
812.265	272.957
812.393	303.809
812.521	313.787
812.649	297.447
812.777	287.511
812.905	324.426
813.033	278.468
813.162	284.511
813.290	278.894
813.418	292.979
813.546	278.617
813.674	281.979
813.802	295.617
813.930	273.298
814.058	272.745
814.187	286.489
814.315	277.383
814.443	290.553
814.571	301.234
814.699	306.170
814.827	281.596
814.955	282.234
815.083	303.234
815.212	303.766
815.340	312.787
815.468	276.532
815.596	290.553
815.724	288.298
815.852	277.128
815.980	278.426
816.108	270.000
816.237	270.404
816.365	284.851
816.493	288.617
816.621	270.277
816.749	281.255
816.877	287.809
817.005	300.340
817.133	289.936
817.262	266.000
817.390	282.106
817.518	267.426
817.646	289.340
817.774	270.021
817.902	269.532
818.030	270.021
818.158	314.979
818.287	292.000
818.415	271.851
818.543	278.617
818.671	289.511
818.799	266.447
818.927	285.723
819.055	282.383
819.183	272.255
819.312	269.574
819.440	264.362
819.568	260.766
819.696	273.872
819.824	287.234
819.952	260.596
820.080	278.191
820.208	264.766
820.337	263.936
820.465	298.298
820.593	272.043
820.721	265.426
820.849	276.106
820.977	263.766
821.105	275.596
821.233	252.745
821.362	292.936
821.490	259.362
821.618	260.872
821.746	258.000
821.874	272.234
822.002	264.255
822.130	260.936
822.258	255.298
822.387	262.787
822.515	279.383
822.643	271.809
822.771	270.787
822.899	267.872
823.027	305.404
823.155	244.723
823.283	254.574
823.412	268.660
823.540	267.596
823.668	305.681
823.796	252.000
823.924	291.383
824.052	284.085
824.180	271.553
824.308	256.447
824.437	253.085
824.565	256.106
824.693	279.340
824.821	265.745
824.949	271.362
825.077	265.532
825.205	293.255
825.333	283.064
825.462	284.000
825.590	265.170
825.718	281.894
825.846	263.191
825.974	247.830
826.102	260.766
826.230	255.511
826.358	257.319
826.487	253.043
826.615	296.745
826.743	248.064
826.871	276.298
826.999	306.596
827.127	261.681
827.255	272.638
827.383	247.894
827.512	280.723
827.640	250.702
827.768	246.128
827.896	261.660
828.024	250.128
828.152	260.234
828.280	252.340
828.408	252.319
828.537	253.745
828.665	261.043
828.793	262.298
828.921	243.553
829.049	274.979
829.177	246.426
829.305	246.553
829.433	253.340
829.562	267.255
829.690	243.957
829.818	282.298
829.946	252.340
830.074	257.277
830.202	269.447
830.330	275.553
830.458	299.383
830.587	252.021
830.715	258.574
830.843	251.255
830.971	258.979
831.099	282.000
831.227	248.000
831.355	250.255
831.483	261.894
831.612	283.702
831.740	255.426
831.868	258.489
831.996	248.319
832.124	248.596
832.252	237.277
832.380	261.872
832.508	303.447
832.637	248.064
832.765	255.021
832.893	279.617
833.021	243.043
833.149	241.638
833.277	254.809
833.405	247.447
833.533	242.043
833.662	253.128
833.790	245.277
833.918	261.043
834.046	287.021
834.174	253.809
834.302	245.319
834.430	242.383
834.558	249.468
834.687	264.957
834.815	239.170
834.943	248.149
835.071	247.489
835.199	249.106
835.327	271.319
835.455	238.894
835.583	289.809
835.712	235.809
835.840	246.383
835.968	246.915
836.096	297.957
836.224	261.319
836.352	236.574
836.480	249.362
836.608	255.362
836.737	240.511
836.865	242.191
836.993	258.383
837.121	254.574
837.249	237.191
837.377	262.553
837.505	255.128
837.633	243.170
837.762	244.532
837.890	280.362
838.018	275.319
838.146	286.979
838.274	260.213
838.402	266.638
838.530	247.872
838.658	229.043
838.787	251.298
838.915	247.468
839.043	228.277
839.171	261.383
839.299	228.234
839.427	245.234
839.555	239.383
839.683	266.979
839.812	272.383
839.940	233.894
840.068	258.532
840.196	255.660
840.324	240.426
840.452	246.340
840.580	278.000
840.708	247.681
840.837	273.936
840.965	233.894
841.093	248.809
841.221	235.468
841.349	241.872
841.477	253.043
841.605	256.596
841.733	244.660
841.862	246.532
841.990	299.085
842.118	229.830
842.246	243.723
842.374	238.000
842.502	223.000
842.630	258.447
842.758	264.468
842.887	233.574
843.015	242.532
843.143	264.553
843.271	244.936
843.399	280.021
843.527	244.915
843.655	225.255
843.783	240.596
843.912	236.447
844.040	270.574
844.168	223.511
844.296	234.404
844.424	229.362
844.552	243.532
844.680	256.702
844.808	258.574
844.937	244.532
845.065	235.447
845.193	253.383
845.321	242.830
845.449	239.787
845.577	246.638
845.705	238.170
845.833	228.340
845.962	250.872
846.090	229.766
846.218	244.511
846.346	254.404
846.474	255.085
846.602	243.787
846.730	274.532
846.858	255.404
846.987	238.085
847.115	225.191
847.243	258.638
847.371	254.617
847.499	254.787
847.627	236.596
847.755	234.532
847.883	246.766
848.012	249.447
848.140	240.106
848.268	262.106
848.396	227.915
848.524	263.830
848.652	220.617
848.780	226.681
848.908	243.574
849.037	233.574
849.165	250.404
849.293	247.213
849.421	262.723
849.549	245.830
849.677	244.809
849.805	245.319
849.933	241.745
850.062	235.149
850.190	243.447
850.318	239.170
850.446	229.532
850.574	227.085
850.702	231.702
850.830	244.340
850.958	253.170
851.087	226.043
851.215	245.617
851.343	229.596
851.471	231.830
851.599	243.532
851.727	245.191
851.855	287.404
851.983	249.596
852.112	235.957
852.240	235.255
852.368	231.000
852.496	237.489
852.624	232.362
852.752	237.277
852.880	221.553
853.008	240.851
853.137	248.851
853.265	249.319
853.393	240.085
853.521	251.574
853.649	242.447
853.777	222.191
853.905	243.638
854.033	237.191
854.162	297.085
854.290	237.170
854.418	221.936
854.546	229.787
854.674	331.660
854.802	236.340
854.930	228.574
855.058	217.894
855.187	226.766
855.315	252.830
855.443	218.000
855.571	224.213
855.699	227.468
855.827	235.277
855.955	227.404
856.083	233.979
856.212	245.106
856.340	230.319
856.468	279.489
856.596	259.234
856.724	236.553
856.852	237.957
856.980	235.553
857.108	239.468
857.237	225.277
857.365	261.468
857.493	226.702
857.621	223.447
857.749	232.638
857.877	243.043
858.005	248.170
858.133	232.936
858.262	227.553
858.390	230.596
858.518	219.574
858.646	224.383
858.774	225.021
858.902	203.064
859.030	231.085
859.158	245.809
859.287	242.872
859.415	261.191
859.543	216.936
859.671	223.702
859.799	245.766
859.927	236.957
860.055	230.468
860.183	245.106
860.312	231.574
860.440	239.340
860.568	228.021
860.696	223.511
860.824	293.894
860.952	280.106
861.080	232.000
861.208	232.383
861.337	235.553
861.465	260.447
861.593	261.681
861.721	229.319
861.849	225.021
861.977	211.106
862.105	239.617
862.233	259.404
862.362	241.638
862.490	251.404
862.618	226.085
862.746	229.468
862.874	231.128
863.002	227.319
863.130	261.170
863.258	233.830
863.387	248.128
863.515	248.085
863.643	238.298
863.771	295.064
863.899	226.553
864.027	225.106
864.155	218.489
864.283	253.894
864.412	231.234
864.540	225.128
864.668	222.511
864.796	230.617
864.924	239.255
865.052	235.936
865.180	223.766
865.308	206.979
865.437	232.234
865.565	241.681
865.693	264.745
865.821	236.532
865.949	248.532
866.077	232.149
866.205	240.745
866.333	247.149
866.462	224.489
866.590	235.915
866.718	246.596
866.846	227.319
866.974	243.553
867.102	250.277
867.230	271.787
867.358	230.021
867.487	223.106
867.615	249.106
867.743	234.064
867.871	245.404
867.999	235.574
868.127	235.447
868.255	281.170
868.383	279.957
868.512	233.894
868.640	227.085
868.768	217.468
868.896	212.021
869.024	261.277
869.152	229.404
869.280	236.915
869.408	262.596
869.537	227.681
869.665	298.702
869.793	228.766
869.921	263.468
870.049	235.745
870.177	241.830
870.305	277.106
870.433	219.787
870.562	243.660
870.690	221.000
870.818	220.191
870.946	244.787
871.074	265.468
871.202	243.170
871.330	250.362
871.458	213.426
871.587	225.277
871.715	239.957
871.843	224.213
871.971	225.170
872.099	230.787
872.227	217.319
872.355	249.447
872.483	236.404
872.612	237.979
872.740	240.021
872.868	223.426
872.996	235.447
873.124	226.617
873.252	227.340
873.380	227.277
873.508	222.447
873.637	243.617
873.765	226.702
873.893	281.936
874.021	234.638
874.149	221.000
874.277	237.553
874.405	219.957
874.533	231.830
874.662	1126.532
874.790	224.979
874.918	263.745
875.046	251.191
875.174	243.106
875.302	215.915
875.430	266.532
875.558	243.106
875.687	245.872
875.815	231.447
875.943	226.851
876.071	238.043
876.199	261.681
876.327	271.234
876.455	228.511
876.583	247.553
876.712	225.766
876.840	242.021
876.968	270.936
877.096	231.489
877.224	222.851
877.352	283.064
877.480	222.255
877.608	237.340
877.737	241.447
877.865	226.723
877.993	248.000
878.121	215.149
878.249	224.787
878.377	222.809
878.505	232.404
878.633	234.340
878.762	234.426
878.890	222.319
879.018	293.234
879.146	229.489
879.274	222.468
879.402	247.255
879.530	239.128
879.658	218.255
879.787	226.532
879.915	223.404
880.043	253.936
880.171	212.787
880.299	243.064
880.427	235.404
880.555	233.660
880.683	251.489
880.812	222.936
880.940	260.681
881.068	218.809
881.196	224.383
881.324	243.638
881.452	215.957
881.580	253.170
881.708	249.957
881.837	239.447
881.965	241.723
882.093	242.596
882.221	219.319
882.349	262.000
882.477	250.681
882.605	242.851
882.733	222.191
882.862	270.191
882.990	245.617
883.118	223.213
883.246	235.000
883.374	228.638
883.502	228.170
883.630	216.957
883.758	229.809
883.887	240.106
884.015	220.872
884.143	229.915
884.271	242.596
884.399	226.553
884.527	228.383
884.655	217.000
884.783	242.830
884.912	248.298
885.040	225.489
885.168	295.404
885.296	225.128
885.424	242.255
885.552	248.915
885.680	234.234
885.808	225.468
885.937	243.872
886.065	245.489
886.193	222.362
886.321	264.489
886.449	223.340
886.577	274.085
886.705	219.660
886.833	220.340
886.962	222.043
887.090	238.319
887.218	232.596
887.346	243.553
887.474	265.468
887.602	241.553
887.730	235.830
887.858	261.170
887.987	232.404
888.115	272.298
888.243	247.489
888.371	242.745
888.499	223.532
888.627	249.085
888.755	243.000
888.883	233.234
889.012	223.809
889.140	228.851
889.268	254.064
889.396	246.043
889.524	235.489
889.652	225.532
889.780	214.787
889.908	263.681
890.037	226.809
890.165	227.809
890.293	249.979
890.421	283.723
890.549	237.000
890.677	232.447
890.805	225.085
890.933	256.809
891.062	236.426
891.190	226.191
891.318	236.085
891.446	231.298
891.574	221.553
891.702	236.191
891.830	228.043
891.958	260.702
892.087	270.851
892.215	241.404
892.343	244.404
892.471	247.851
892.599	230.723
892.727	259.723
892.855	233.447
892.983	221.128
893.112	230.787
893.240	229.936
893.368	263.234
893.496	232.319
893.624	242.830
893.752	292.894
893.880	275.511
894.008	218.064
894.137	240.574
894.265	238.915
894.393	237.787
894.521	231.532
894.649	258.745
894.777	235.745
894.905	214.021
895.033	268.511
895.162	233.851
895.290	270.426
895.418	246.766
895.546	243.511
895.674	310.702
895.802	227.149
895.930	248.191
896.058	213.936
896.187	221.000
896.315	230.915
896.443	226.532
896.571	228.234
896.699	238.660
896.827	245.872
896.955	243.809
897.083	224.660
897.212	270.128
897.340	232.638
897.468	215.447
897.596	227.362
897.724	269.872
897.852	236.702
897.980	234.191
898.108	237.021
898.237	223.596
898.365	224.723
898.493	240.830
898.621	238.234
898.749	235.404
898.877	236.766
899.005	215.426
899.133	228.170
899.262	245.489
899.390	272.362
899.518	240.404
899.646	235.255
899.774	264.021
899.902	310.681
900.030	242.043
900.158	240.021
900.287	254.000
900.415	217.596
900.543	247.681
900.671	234.043
900.799	270.191
900.927	233.553
901.055	230.426
901.183	238.596
901.312	257.936
901.440	250.574
901.568	251.553
901.696	235.957
901.824	241.872
901.952	249.213
902.080	356.532
902.208	269.851
902.337	227.617
902.465	246.830
902.593	234.766
902.721	244.979
902.849	243.149
902.977	250.830
903.105	231.489
903.233	250.830
903.362	233.255
903.490	249.340
903.618	233.830
903.746	253.851
903.874	222.638
904.002	244.936
904.130	240.617
904.258	253.830
904.387	233.149
904.515	248.660
904.643	217.872
904.771	232.106
904.899	249.128
905.027	262.319
905.155	247.000
905.283	241.170
905.412	263.681
905.540	238.447
905.668	237.106
905.796	230.702
905.924	233.936
906.052	238.468
906.180	262.383
906.308	246.085
906.437	264.468
906.565	248.468
906.693	241.766
906.821	224.489
906.949	240.660
907.077	257.766
907.205	240.255
907.333	246.809
907.462	233.000
907.590	237.106
907.718	259.894
907.846	278.723
907.974	230.915
908.102	239.340
908.230	259.021
908.358	275.702
908.487	249.447
908.615	253.468
908.743	255.043
908.871	302.787
908.999	241.617
909.127	267.745
909.255	221.213
909.383	236.596
909.512	277.532
909.640	251.234
909.768	246.787
909.896	298.830
910.024	265.872
910.152	252.809
910.280	286.255
910.408	244.128
910.537	242.128
910.665	277.255
910.793	250.191
910.921	255.511
911.049	234.702
911.177	234.383
911.305	258.532
911.433	250.532
911.562	240.085
911.690	251.702
911.818	297.404
911.946	239.298
912.074	263.362
912.202	274.064
912.330	245.213
912.458	247.234
912.587	265.447
912.715	273.638
912.843	273.830
912.971	261.745
913.099	275.957
913.227	264.745
913.355	250.255
913.483	265.617
913.612	261.894
913.740	384.830
913.868	264.894
