90pol_70_140_at_750.00nm_cut_at_984.50Y_01.dat
24.04.2023
10:56:39
cut middle at Y: 984.50
top cursor: 1008 down cursor: 961 mean of: 47 lines , 2560 datapoints
wavelength(nm)	intensity[arb. units]
585.996	24983.723
586.124	24328.000
586.252	24107.489
586.380	24174.894
586.508	24209.681
586.637	24313.830
586.765	24438.894
586.893	24451.574
587.021	24552.617
587.149	24634.702
587.277	24602.957
587.405	24758.617
587.533	24701.021
587.662	24909.787
587.790	24894.787
587.918	24846.851
588.046	24932.191
588.174	24853.787
588.302	24995.872
588.430	24943.681
588.558	24971.000
588.687	25106.957
588.815	25021.553
588.943	25093.596
589.071	25052.702
589.199	25162.596
589.327	25203.191
589.455	25097.085
589.583	25209.383
589.712	25220.745
589.840	25116.064
589.968	25279.872
590.096	25362.213
590.224	25356.957
590.352	25356.383
590.480	25273.787
590.608	25408.255
590.737	25490.787
590.865	25524.064
590.993	25420.298
591.121	25520.340
591.249	25581.043
591.377	25512.043
591.505	25655.766
591.633	25690.362
591.762	25690.000
591.890	25880.021
592.018	25782.894
592.146	25826.638
592.274	25792.447
592.402	25955.936
592.530	26012.915
592.658	26272.979
592.787	26078.723
592.915	26354.660
593.043	26351.468
593.171	26422.872
593.299	26495.000
593.427	26588.191
593.555	26711.894
593.683	26768.468
593.812	26860.149
593.940	26888.489
594.068	27086.128
594.196	27182.319
594.324	27255.553
594.452	27315.213
594.580	27392.340
594.708	27497.064
594.837	27526.851
594.965	27659.660
595.093	27825.383
595.221	27823.553
595.349	28082.979
595.477	28065.277
595.605	28182.681
595.733	28130.745
595.862	28555.213
595.990	28400.553
596.118	28451.362
596.246	28685.851
596.374	28599.149
596.502	28686.085
596.630	28799.511
596.758	28838.340
596.887	28771.979
597.015	28915.447
597.143	28941.234
597.271	29006.362
597.399	29044.681
597.527	29104.447
597.655	29126.723
597.783	29085.957
597.912	29086.872
598.040	29204.766
598.168	29219.426
598.296	29256.149
598.424	29179.574
598.552	29248.000
598.680	29221.170
598.808	29393.298
598.937	29282.383
599.065	29234.170
599.193	29292.043
599.321	29299.128
599.449	29319.830
599.577	29286.191
599.705	29349.766
599.833	29403.766
599.962	29443.362
600.090	29545.489
600.218	29561.532
600.346	29575.851
600.474	29513.511
600.602	29692.043
600.730	29769.681
600.858	29813.872
600.987	29972.787
601.115	29970.085
601.243	30090.894
601.371	30116.043
601.499	30230.191
601.627	30322.787
601.755	30483.085
601.883	30518.277
602.012	30672.915
602.140	30723.319
602.268	30981.851
602.396	31001.681
602.524	31236.660
602.652	31239.021
602.780	31421.404
602.908	31522.362
603.037	31607.872
603.165	31709.064
603.293	31851.915
603.421	32055.936
603.549	32148.128
603.677	32386.702
603.805	32321.787
603.933	32620.723
604.062	32862.106
604.190	32898.234
604.318	33146.660
604.446	33219.149
604.574	33395.255
604.702	33544.277
604.830	33721.128
604.958	33799.809
605.087	34021.638
605.215	34050.894
605.343	34184.404
605.471	34347.957
605.599	34469.596
605.727	34573.553
605.855	34633.191
605.983	34789.000
606.112	34838.277
606.240	34910.766
606.368	34981.468
606.496	35244.021
606.624	35092.894
606.752	35287.723
606.880	35470.128
607.008	35579.404
607.137	35518.830
607.265	35297.511
607.393	35466.894
607.521	35710.213
607.649	35566.936
607.777	35579.340
607.905	35595.681
608.033	35621.404
608.162	35603.383
608.290	35721.064
608.418	35645.979
608.546	35760.064
608.674	35592.255
608.802	35658.660
608.930	35807.660
609.058	35802.170
609.187	35859.447
609.315	35805.894
609.443	35723.915
609.571	35840.362
609.699	35790.979
609.827	35842.660
609.955	35779.191
610.083	35816.383
610.212	35796.170
610.340	35811.638
610.468	35902.319
610.596	35892.362
610.724	35950.298
610.852	35908.426
610.980	36014.766
611.108	36015.404
611.237	36002.979
611.365	36074.787
611.493	36047.979
611.621	36210.106
611.749	36283.617
611.877	36390.681
612.005	36450.149
612.133	36584.596
612.262	36661.149
612.390	36689.255
612.518	36836.851
612.646	36932.532
612.774	36978.574
612.902	37104.830
613.030	37330.660
613.158	37506.149
613.287	37546.766
613.415	37539.170
613.543	37475.234
613.671	37656.957
613.799	37845.936
613.927	37693.085
614.055	37819.936
614.183	38115.191
614.312	38108.511
614.440	38330.894
614.568	38270.468
614.696	38462.149
614.824	38708.468
614.952	38721.191
615.080	38858.319
615.208	39014.106
615.337	39141.681
615.465	39194.574
615.593	39473.787
615.721	39682.766
615.849	39869.872
615.977	39866.468
616.105	39968.596
616.233	40023.957
616.362	40131.936
616.490	40140.362
616.618	40255.553
616.746	40351.617
616.874	40440.596
617.002	40540.851
617.130	40501.532
617.258	40812.830
617.387	40667.043
617.515	40792.468
617.643	40852.745
617.771	40863.979
617.899	40826.234
618.027	40979.617
618.155	41051.021
618.283	41015.404
618.412	41010.681
618.540	41209.532
618.668	41177.426
618.796	41367.617
618.924	41482.915
619.052	41488.915
619.180	41403.085
619.308	41484.319
619.437	41557.447
619.565	41566.319
619.693	41450.043
619.821	41519.723
619.949	41600.574
620.077	41627.617
620.205	41699.277
620.333	41654.894
620.462	41809.851
620.590	41751.723
620.718	41681.000
620.846	41810.894
620.974	41747.702
621.102	41771.766
621.230	41831.681
621.358	42002.681
621.487	41869.128
621.615	41922.319
621.743	42041.319
621.871	41934.404
621.999	41993.596
622.127	42009.468
622.255	42052.021
622.383	42026.085
622.512	42034.234
622.640	42193.340
622.768	42031.574
622.896	42070.213
623.024	42211.426
623.152	42158.319
623.280	42136.064
623.408	42138.191
623.537	42260.915
623.665	42154.191
623.793	42200.149
623.921	42266.894
624.049	42212.532
624.177	42188.851
624.305	42320.830
624.433	42336.362
624.562	42411.404
624.690	42216.234
624.818	42307.511
624.946	42486.234
625.074	42417.468
625.202	42406.489
625.330	42318.255
625.458	42337.383
625.587	42391.149
625.715	42396.660
625.843	42461.362
625.971	42491.277
626.099	42355.936
626.227	42381.532
626.355	42242.809
626.483	42396.277
626.612	42453.170
626.740	42409.851
626.868	42515.191
626.996	42458.894
627.124	42558.553
627.252	42510.787
627.380	42564.149
627.508	42648.255
627.637	42571.617
627.765	42613.000
627.893	42774.064
628.021	42813.255
628.149	43067.404
628.277	43133.149
628.405	43182.468
628.533	42927.979
628.662	42909.723
628.790	43010.043
628.918	43057.319
629.046	43150.787
629.174	43407.319
629.302	43707.447
629.430	43664.319
629.558	43476.064
629.687	43571.447
629.815	43588.574
629.943	43655.872
630.071	43723.128
630.199	43777.319
630.327	43792.489
630.455	43953.064
630.583	44030.681
630.712	43976.979
630.840	44154.170
630.968	44117.404
631.096	44217.000
631.224	44224.851
631.352	44280.574
631.480	44371.021
631.608	44453.170
631.737	44425.915
631.865	44574.468
631.993	44435.468
632.121	44599.574
632.249	44492.149
632.377	44504.596
632.505	44673.894
632.633	44443.596
632.762	44468.830
632.890	44595.702
633.018	44395.362
633.146	44682.511
633.274	44398.021
633.402	44501.426
633.530	44387.404
633.658	44442.766
633.787	44320.979
633.915	44229.936
634.043	44299.638
634.171	44268.128
634.299	44207.362
634.427	44120.787
634.555	44099.894
634.683	44005.894
634.812	43963.255
634.940	43919.128
635.068	43949.468
635.196	43966.255
635.324	43839.553
635.452	43754.660
635.580	43734.383
635.708	43559.043
635.837	43571.319
635.965	43433.149
636.093	43449.128
636.221	43321.213
636.349	43349.064
636.477	43113.043
636.605	43279.745
636.733	42879.043
636.862	42943.000
636.990	42917.085
637.118	42854.255
637.246	42720.255
637.374	42755.128
637.502	42706.957
637.630	42630.957
637.758	42551.702
637.887	42462.936
638.015	42428.766
638.143	42409.596
638.271	42223.915
638.399	42279.596
638.527	42245.511
638.655	42188.149
638.783	42215.043
638.912	42124.000
639.040	42087.298
639.168	41941.638
639.296	41888.766
639.424	42045.979
639.552	41829.021
639.680	42028.298
639.808	41905.745
639.937	41868.596
640.065	41805.362
640.193	41732.298
640.321	41783.043
640.449	41743.383
640.577	41765.340
640.705	41708.553
640.833	41797.170
640.962	41604.766
641.090	41594.702
641.218	41571.532
641.346	41726.191
641.474	41591.128
641.602	41588.596
641.730	41618.723
641.858	41717.809
641.987	41726.426
642.115	41544.532
642.243	41560.681
642.371	41646.830
642.499	41502.277
642.627	41661.851
642.755	41699.000
642.883	41626.404
643.012	41600.447
643.140	41552.064
643.268	41503.298
643.396	41593.787
643.524	41596.404
643.652	41614.043
643.780	41535.064
643.908	41506.298
644.037	41547.064
644.165	41511.489
644.293	41429.511
644.421	41564.000
644.549	41431.809
644.677	41413.766
644.805	41335.872
644.933	41330.426
645.062	41294.128
645.190	41298.809
645.318	41305.532
645.446	41143.404
645.574	41178.936
645.702	41119.787
645.830	41237.277
645.958	40986.787
646.087	41013.787
646.215	40755.681
646.343	40973.340
646.471	40801.638
646.599	40828.681
646.727	40749.447
646.855	40663.128
646.983	40570.596
647.112	40491.915
647.240	40541.447
647.368	40323.319
647.496	40277.660
647.624	40270.745
647.752	40098.191
647.880	40109.702
648.008	39943.170
648.137	39902.979
648.265	39782.383
648.393	39748.000
648.521	39639.638
648.649	39443.447
648.777	39435.043
648.905	39393.064
649.033	39163.532
649.162	39061.191
649.290	38922.106
649.418	38813.702
649.546	38920.660
649.674	38787.894
649.802	38527.638
649.930	38597.468
650.058	38372.872
650.187	38278.340
650.315	38233.362
650.443	38122.979
650.571	38099.191
650.699	37987.979
650.827	37944.723
650.955	37730.745
651.083	37771.489
651.212	37576.723
651.340	37584.213
651.468	37403.532
651.596	37242.468
651.724	37204.617
651.852	37184.085
651.980	37029.617
652.108	36911.787
652.237	36851.447
652.365	36714.957
652.493	36618.553
652.621	36610.574
652.749	36583.000
652.877	36409.979
653.005	36286.489
653.133	36116.660
653.262	36171.404
653.390	35971.191
653.518	36051.340
653.646	35854.745
653.774	35846.511
653.902	35631.511
654.030	35542.532
654.158	35425.085
654.287	35387.298
654.415	35238.234
654.543	35253.191
654.671	35167.447
654.799	35168.468
654.927	34907.447
655.055	34850.000
655.183	34825.660
655.312	34728.447
655.440	34607.128
655.568	34443.574
655.696	34423.723
655.824	34455.681
655.952	34229.851
656.080	34030.511
656.208	34032.021
656.337	33917.957
656.465	33878.809
656.593	33663.745
656.721	33508.021
656.849	33450.489
656.977	33407.170
657.105	33244.723
657.233	33134.319
657.362	32998.191
657.490	32787.660
657.618	32804.191
657.746	32669.447
657.874	32485.000
658.002	32356.830
658.130	32331.277
658.258	32121.170
658.387	32109.468
658.515	31972.915
658.643	31847.851
658.771	31766.681
658.899	31640.681
659.027	31560.255
659.155	31422.766
659.283	31470.064
659.412	31281.787
659.540	31205.277
659.668	30965.851
659.796	30895.766
659.924	30863.851
660.052	30743.681
660.180	30622.574
660.308	30500.617
660.437	30437.745
660.565	30304.340
660.693	30231.191
660.821	30086.574
660.949	30105.702
661.077	30024.957
661.205	29827.766
661.333	29687.468
661.462	29752.979
661.590	29547.872
661.718	29590.064
661.846	29468.404
661.974	29485.553
662.102	29222.000
662.230	29230.511
662.358	28980.511
662.487	28980.404
662.615	28957.170
662.743	28869.468
662.871	28783.128
662.999	28670.532
663.127	28597.043
663.255	28607.191
663.383	28529.936
663.512	28459.234
663.640	28398.702
663.768	28346.723
663.896	28401.234
664.024	28381.447
664.152	28292.894
664.280	28290.255
664.408	28204.702
664.537	28166.851
664.665	28012.723
664.793	27913.872
664.921	27840.362
665.049	27882.468
665.177	27763.830
665.305	27799.085
665.433	27630.340
665.562	27629.511
665.690	27577.489
665.818	27652.787
665.946	27435.085
666.074	27444.340
666.202	27356.681
666.330	27253.043
666.458	27166.915
666.587	27087.213
666.715	27045.191
666.843	27056.723
666.971	26923.872
667.099	26971.830
667.227	26766.830
667.355	26772.915
667.483	26691.277
667.612	26599.574
667.740	26567.660
667.868	26565.447
667.996	26404.617
668.124	26329.723
668.252	26266.298
668.380	26194.340
668.508	26131.745
668.637	26028.383
668.765	25888.234
668.893	25915.596
669.021	25803.426
669.149	25781.043
669.277	25729.489
669.405	25551.404
669.533	25450.170
669.662	25684.809
669.790	25355.596
669.918	25254.043
670.046	25191.021
670.174	25145.511
670.302	25032.213
670.430	24974.553
670.558	24915.234
670.687	24701.043
670.815	24747.574
670.943	24559.851
671.071	24459.489
671.199	24429.745
671.327	24286.000
671.455	24220.511
671.583	24136.170
671.712	24154.170
671.840	24029.213
671.968	23780.426
672.096	23726.830
672.224	23600.340
672.352	23657.915
672.480	23478.000
672.608	23289.021
672.737	23188.319
672.865	23233.915
672.993	22937.766
673.121	22848.532
673.249	22738.213
673.377	22640.064
673.505	22532.170
673.633	22395.319
673.762	22282.617
673.890	22229.723
674.018	22343.213
674.146	22058.660
674.274	21916.574
674.402	21971.404
674.530	21780.532
674.658	21614.596
674.787	21444.766
674.915	21375.170
675.043	21393.574
675.171	21219.957
675.299	21082.596
675.427	20984.574
675.555	20868.000
675.683	20726.383
675.812	20650.064
675.940	20575.723
676.068	20457.787
676.196	20352.149
676.324	20381.043
676.452	20150.149
676.580	20011.787
676.708	20030.596
676.837	19946.553
676.965	19842.574
677.093	19682.809
677.221	19650.915
677.349	19511.638
677.477	19491.106
677.605	19395.255
677.733	19346.936
677.862	19122.043
677.990	18991.638
678.118	18958.170
678.246	18890.702
678.374	18852.511
678.502	18689.702
678.630	18642.191
678.758	18532.000
678.887	18403.426
679.015	18364.043
679.143	18319.106
679.271	18200.511
679.399	18159.106
679.527	18086.809
679.655	17984.234
679.783	17941.362
679.912	17881.000
680.040	17815.234
680.168	17733.723
680.296	17638.021
680.424	17530.489
680.552	17524.319
680.680	17493.617
680.808	17420.404
680.937	17325.255
681.065	17199.404
681.193	17146.468
681.321	17116.681
681.449	17004.979
681.577	16998.957
681.705	16943.043
681.833	16897.064
681.962	16769.638
682.090	16856.000
682.218	16667.362
682.346	16619.787
682.474	16587.064
682.602	16514.787
682.730	16511.830
682.858	16443.319
682.987	16453.298
683.115	16381.553
683.243	16314.596
683.371	16203.170
683.499	16211.617
683.627	16254.319
683.755	16177.170
683.883	16228.787
684.012	16058.340
684.140	15923.064
684.268	15853.170
684.396	15876.085
684.524	15802.404
684.652	15873.255
684.780	15763.574
684.908	15737.596
685.037	15654.745
685.165	15505.681
685.293	15418.681
685.421	15570.660
685.549	15371.723
685.677	15326.426
685.805	15387.128
685.933	15279.447
686.062	15145.149
686.190	15123.255
686.318	15147.766
686.446	14981.574
686.574	14896.128
686.702	15009.447
686.830	14878.191
686.958	14787.106
687.087	14722.617
687.215	14768.468
687.343	14607.723
687.471	14587.723
687.599	14525.681
687.727	14675.043
687.855	14408.404
687.983	14450.872
688.112	14402.936
688.240	14257.191
688.368	14246.043
688.496	14217.319
688.624	14124.043
688.752	14061.191
688.880	14007.234
689.008	13939.745
689.137	13898.511
689.265	13797.830
689.393	13771.638
689.521	13692.170
689.649	13627.957
689.777	13629.532
689.905	13534.489
690.033	13440.064
690.162	13436.128
690.290	13353.085
690.418	13284.106
690.546	13292.085
690.674	13182.723
690.802	13103.255
690.930	13087.553
691.058	12996.723
691.187	12899.149
691.315	12837.532
691.443	12854.936
691.571	12785.319
691.699	12714.851
691.827	12756.085
691.955	12594.617
692.083	12547.404
692.212	12603.511
692.340	12412.255
692.468	12403.170
692.596	12313.936
692.724	12372.745
692.852	12217.383
692.980	12245.574
693.108	12173.553
693.237	12036.277
693.365	11969.702
693.493	11885.638
693.621	11887.234
693.749	11813.979
693.877	11800.340
694.005	11837.085
694.133	11677.340
694.262	11655.170
694.390	11526.404
694.518	11527.468
694.646	11476.957
694.774	11432.532
694.902	11514.340
695.030	11421.383
695.158	11251.702
695.287	11219.511
695.415	11215.319
695.543	11111.426
695.671	11201.681
695.799	11106.128
695.927	10983.532
696.055	10948.191
696.183	10886.000
696.312	10855.426
696.440	10979.702
696.568	10831.915
696.696	10769.830
696.824	10646.532
696.952	10586.809
697.080	10589.830
697.208	10464.085
697.337	10534.638
697.465	10408.723
697.593	10308.489
697.721	10298.532
697.849	10285.617
697.977	10220.383
698.105	10197.489
698.233	10086.191
698.362	10091.106
698.490	10032.830
698.618	10004.766
698.746	10041.489
698.874	9927.340
699.002	10049.468
699.130	9828.426
699.258	9751.511
699.387	9645.723
699.515	9655.830
699.643	9613.596
699.771	9569.915
699.899	9502.340
700.027	9469.085
700.155	9369.383
700.283	9393.617
700.412	9325.149
700.540	9262.383
700.668	9254.277
700.796	9179.596
700.924	9140.000
701.052	9087.191
701.180	9144.085
701.308	9014.872
701.437	8885.511
701.565	8876.723
701.693	8819.979
701.821	8786.170
701.949	8729.340
702.077	8741.489
702.205	8626.617
702.333	8601.894
702.462	8531.213
702.590	8506.681
702.718	8458.809
702.846	8424.745
702.974	8323.809
703.102	8301.745
703.230	8365.043
703.358	8280.638
703.487	8157.745
703.615	8259.830
703.743	8095.468
703.871	8030.234
703.999	8021.851
704.127	8117.255
704.255	7827.979
704.383	8018.915
704.512	7832.787
704.640	7758.000
704.768	7644.447
704.896	7710.277
705.024	7588.851
705.152	7654.489
705.280	7527.340
705.408	7436.660
705.537	7398.277
705.665	7337.383
705.793	7303.979
705.921	7219.723
706.049	7241.426
706.177	7132.702
706.305	7128.809
706.433	7197.766
706.562	7034.191
706.690	7036.936
706.818	6925.340
706.946	7134.766
707.074	6906.404
707.202	6829.213
707.330	6863.468
707.458	6746.340
707.587	6695.787
707.715	6688.787
707.843	6665.447
707.971	6681.532
708.099	6669.809
708.227	6521.426
708.355	6473.191
708.483	6430.851
708.612	6368.830
708.740	6434.830
708.868	6436.723
708.996	6327.660
709.124	6383.596
709.252	6260.809
709.380	6216.255
709.508	6237.660
709.637	6177.234
709.765	6120.468
709.893	6107.404
710.021	6103.362
710.149	6041.660
710.277	6065.660
710.405	5938.660
710.533	5943.532
710.662	5906.617
710.790	5917.723
710.918	5889.319
711.046	5875.383
711.174	5830.766
711.302	5792.745
711.430	5828.362
711.558	5705.064
711.687	5686.128
711.815	5723.702
711.943	5651.830
712.071	5656.234
712.199	5645.638
712.327	5621.915
712.455	5515.319
712.583	5571.106
712.712	5459.830
712.840	5491.298
712.968	5447.830
713.096	5463.936
713.224	5412.298
713.352	5393.915
713.480	5317.638
713.608	5342.532
713.737	5299.957
713.865	5282.830
713.993	5313.979
714.121	5246.574
714.249	5231.298
714.377	5289.340
714.505	5209.638
714.633	5323.872
714.762	5145.681
714.890	5100.787
715.018	5148.021
715.146	5095.745
715.274	5130.277
715.402	5204.340
715.530	5033.638
715.658	4978.426
715.787	4968.766
715.915	5122.319
716.043	4929.277
716.171	4989.426
716.299	4940.000
716.427	4921.255
716.555	4847.553
716.683	4849.979
716.812	4793.702
716.940	4811.064
717.068	4742.340
717.196	4900.766
717.324	4835.596
717.452	4720.979
717.580	4660.660
717.708	4625.213
717.837	4688.404
717.965	4581.426
718.093	4596.723
718.221	4518.681
718.349	4578.532
718.477	4561.489
718.605	4560.638
718.733	4473.532
718.862	4457.723
718.990	4406.447
719.118	4430.511
719.246	4388.553
719.374	4426.234
719.502	4369.574
719.630	4464.809
719.758	4322.766
719.887	4260.149
720.015	4427.532
720.143	4203.596
720.271	4195.745
720.399	4210.277
720.527	4215.255
720.655	4221.128
720.783	4207.404
720.912	4095.426
721.040	4091.979
721.168	4020.426
721.296	4067.851
721.424	4004.745
721.552	3916.468
721.680	3906.830
721.808	3961.596
721.937	3907.064
722.065	4007.638
722.193	3976.553
722.321	3846.128
722.449	3778.957
722.577	3783.000
722.705	3771.213
722.833	3769.000
722.962	3768.426
723.090	3686.915
723.218	3624.043
723.346	3668.851
723.474	3614.234
723.602	3748.596
723.730	3674.638
723.858	3745.745
723.987	3593.043
724.115	3611.532
724.243	3530.830
724.371	3520.426
724.499	3529.277
724.627	3418.745
724.755	3418.511
724.883	3415.851
725.012	3392.617
725.140	3420.766
725.268	3382.511
725.396	3277.915
725.524	3288.574
725.652	3315.574
725.780	3263.234
725.908	3327.426
726.037	3418.851
726.165	3240.511
726.293	3170.085
726.421	3159.851
726.549	3131.660
726.677	3123.404
726.805	3116.447
726.933	3095.511
727.062	3154.319
727.190	3126.681
727.318	3032.128
727.446	3033.085
727.574	3021.936
727.702	3157.149
727.830	2941.255
727.958	3025.447
728.087	2969.191
728.215	3057.170
728.343	2991.298
728.471	2910.830
728.599	2897.106
728.727	2985.638
728.855	2844.468
728.983	2846.511
729.112	2857.021
729.240	2788.638
729.368	2850.106
729.496	2807.915
729.624	2810.383
729.752	2717.745
729.880	2756.319
730.008	2687.000
730.137	2699.809
730.265	2945.957
730.393	2677.681
730.521	2793.766
730.649	2639.277
730.777	2648.362
730.905	2604.404
731.033	2710.553
731.162	2843.787
731.290	2712.745
731.418	2842.511
731.546	2765.043
731.674	2648.191
731.802	2674.936
731.930	2537.043
732.058	2546.447
732.187	2554.660
732.315	2506.404
732.443	2498.191
732.571	2626.872
732.699	2543.872
732.827	2565.532
732.955	2508.149
733.083	2501.426
733.212	2523.383
733.340	2510.383
733.468	2515.745
733.596	2462.872
733.724	2471.660
733.852	2484.553
733.980	2456.638
734.108	2502.383
734.237	2505.362
734.365	2458.894
734.493	2455.830
734.621	2403.255
734.749	2436.617
734.877	2393.766
735.005	2422.574
735.133	2382.149
735.262	2388.723
735.390	2343.319
735.518	2378.383
735.646	2325.064
735.774	2319.617
735.902	2332.000
736.030	2306.596
736.158	2359.723
736.287	2290.085
736.415	2290.000
736.543	2262.043
736.671	2234.766
736.799	2240.064
736.927	2295.681
737.055	2243.511
737.183	2230.234
737.312	2194.468
737.440	2218.574
737.568	2241.319
737.696	2171.021
737.824	2205.532
737.952	2142.064
738.080	2121.830
738.208	2172.596
738.337	2110.191
738.465	2200.468
738.593	2085.021
738.721	2038.511
738.849	2063.553
738.977	2080.596
739.105	2072.064
739.233	2051.745
739.362	2042.830
739.490	2011.064
739.618	1989.553
739.746	1997.723
739.874	1993.638
740.002	1953.021
740.130	1946.426
740.258	1957.340
740.387	1948.447
740.515	1915.894
740.643	1885.830
740.771	1966.404
740.899	1914.681
741.027	1896.553
741.155	1907.638
741.283	1848.660
741.412	1864.106
741.540	1857.106
741.668	1833.660
741.796	1835.404
741.924	1886.957
742.052	1811.319
742.180	1795.617
742.308	1807.532
742.437	1789.574
742.565	1818.787
742.693	1807.000
742.821	1768.489
742.949	1810.277
743.077	1785.043
743.205	1741.766
743.333	1745.064
743.462	1752.894
743.590	1754.447
743.718	1707.383
743.846	1736.404
743.974	1696.404
744.102	1689.170
744.230	1712.745
744.358	1667.383
744.487	1662.851
744.615	1672.787
744.743	1665.532
744.871	1625.936
744.999	1669.532
745.127	1620.213
745.255	1592.106
745.383	1627.702
745.512	1614.830
745.640	1591.787
745.768	1605.021
745.896	1585.979
746.024	1578.894
746.152	1557.340
746.280	1567.191
746.408	1546.681
746.537	1543.043
746.665	1559.000
746.793	1545.043
746.921	1508.830
747.049	1533.660
747.177	1548.213
747.305	1552.809
747.433	1539.851
747.562	1496.468
747.690	1482.255
747.818	1488.830
747.946	1474.362
748.074	1582.532
748.202	1494.830
748.330	1460.447
748.458	1468.404
748.587	1452.277
748.715	1418.149
748.843	1451.979
748.971	1422.915
749.099	1431.404
749.227	1441.383
749.355	1406.021
749.483	1408.638
749.612	1395.702
749.740	1386.468
749.868	1399.234
749.996	1379.340
750.124	1367.511
750.252	1381.766
750.380	1383.894
750.508	1338.000
750.637	1332.128
750.765	1373.660
750.893	1339.170
751.021	1363.809
751.149	1357.085
751.277	1361.000
751.405	1359.660
751.533	1401.106
751.662	1311.979
751.790	1342.766
751.918	1284.085
752.046	1299.553
752.174	1286.511
752.302	1334.617
752.430	1276.468
752.558	1242.915
752.687	1263.043
752.815	1272.234
752.943	1240.383
753.071	1227.106
753.199	1229.170
753.327	1283.638
753.455	1230.660
753.583	1208.766
753.712	1210.043
753.840	1212.766
753.968	1188.149
754.096	1196.191
754.224	1157.787
754.352	1161.915
754.480	1165.872
754.608	1168.170
754.737	1175.681
754.865	1186.191
754.993	1159.319
755.121	1147.745
755.249	1201.511
755.377	1151.979
755.505	1131.383
755.633	1142.426
755.762	1107.277
755.890	1186.681
756.018	1159.574
756.146	1090.872
756.274	1084.957
756.402	1106.362
756.530	1100.362
756.658	1106.234
756.787	1104.128
756.915	1055.766
757.043	1109.000
757.171	1081.638
757.299	1068.404
757.427	1033.702
757.555	1050.532
757.683	1082.766
757.812	1023.872
757.940	1032.809
758.068	1015.809
758.196	1023.957
758.324	1016.894
758.452	1114.957
758.580	1003.319
758.708	1015.830
758.837	996.106
758.965	1082.362
759.093	977.553
759.221	954.617
759.349	966.638
759.477	960.340
759.605	946.362
759.733	941.957
759.862	960.021
759.990	942.149
760.118	938.511
760.246	924.191
760.374	943.000
760.502	949.000
760.630	942.511
760.758	927.255
760.887	902.191
761.015	913.489
761.143	882.553
761.271	895.468
761.399	876.362
761.527	881.574
761.655	888.106
761.783	878.766
761.912	868.234
762.040	860.894
762.168	894.936
762.296	859.766
762.424	860.149
762.552	869.085
762.680	922.617
762.808	827.617
762.937	856.255
763.065	897.787
763.193	880.468
763.321	841.894
763.449	810.787
763.577	827.468
763.705	820.681
763.833	899.319
763.962	797.043
764.090	802.043
764.218	824.638
764.346	806.489
764.474	792.255
764.602	794.362
764.730	784.489
764.858	811.574
764.987	791.277
765.115	836.574
765.243	776.213
765.371	765.830
765.499	749.745
765.627	748.340
765.755	737.489
765.883	773.277
766.012	756.319
766.140	733.447
766.268	737.447
766.396	720.149
766.524	730.489
766.652	718.000
766.780	725.511
766.908	734.489
767.037	721.362
767.165	723.468
767.293	772.638
767.421	698.489
767.549	702.809
767.677	724.362
767.805	687.255
767.933	701.915
768.062	712.149
768.190	687.319
768.318	668.957
768.446	693.723
768.574	724.511
768.702	697.064
768.830	675.596
768.958	687.723
769.087	647.489
769.215	664.936
769.343	661.894
769.471	646.809
769.599	697.468
769.727	670.149
769.855	656.021
769.983	646.149
770.112	641.830
770.240	630.468
770.368	646.128
770.496	621.574
770.624	633.851
770.752	648.064
770.880	665.723
771.008	624.149
771.137	627.383
771.265	663.383
771.393	638.404
771.521	624.553
771.649	611.064
771.777	613.085
771.905	611.447
772.033	612.298
772.162	627.404
772.290	605.851
772.418	674.723
772.546	625.255
772.674	604.809
772.802	611.447
772.930	635.340
773.058	589.787
773.187	610.447
773.315	596.553
773.443	602.723
773.571	586.106
773.699	590.468
773.827	582.511
773.955	627.702
774.083	600.596
774.212	583.340
774.340	601.532
774.468	568.085
774.596	572.404
774.724	578.106
774.852	573.617
774.980	566.660
775.108	565.085
775.237	563.000
775.365	576.957
775.493	566.404
775.621	560.404
775.749	570.660
775.877	567.298
776.005	567.170
776.133	582.915
776.262	570.851
776.390	534.447
776.518	593.404
776.646	548.489
776.774	568.574
776.902	548.106
777.030	554.340
777.158	552.574
777.287	563.894
777.415	527.872
777.543	534.043
777.671	531.872
777.799	528.936
777.927	522.766
778.055	542.660
778.183	522.234
778.312	497.085
778.440	525.043
778.568	542.532
778.696	521.574
778.824	538.340
778.952	525.681
779.080	514.511
779.208	549.532
779.337	529.936
779.465	517.553
779.593	519.255
779.721	530.383
779.849	520.660
779.977	506.574
780.105	493.553
780.233	515.000
780.362	530.170
780.490	541.660
780.618	504.957
780.746	501.277
780.874	489.255
781.002	495.511
781.130	480.489
781.258	472.596
781.387	491.638
781.515	520.021
781.643	474.511
781.771	525.043
781.899	484.532
782.027	532.362
782.155	493.362
782.283	482.766
782.412	469.745
782.540	482.638
782.668	503.830
782.796	456.255
782.924	502.809
783.052	459.617
783.180	503.894
783.308	465.213
783.437	465.702
783.565	472.362
783.693	474.745
783.821	465.681
783.949	456.234
784.077	483.213
784.205	473.638
784.333	501.489
784.462	440.319
784.590	467.766
784.718	467.426
784.846	439.362
784.974	466.319
785.102	498.468
785.230	456.319
785.358	502.064
785.487	447.681
785.615	460.149
785.743	448.043
785.871	452.957
785.999	434.574
786.127	429.766
786.255	454.511
786.383	462.553
786.512	466.787
786.640	447.809
786.768	457.660
786.896	435.723
787.024	431.043
787.152	434.851
787.280	444.553
787.408	424.872
787.537	449.766
787.665	436.723
787.793	461.426
787.921	443.638
788.049	433.957
788.177	415.957
788.305	418.532
788.433	446.426
788.562	418.787
788.690	414.830
788.818	417.745
788.946	436.170
789.074	411.872
789.202	429.787
789.330	436.511
789.458	420.043
789.587	468.234
789.715	425.128
789.843	428.596
789.971	411.213
790.099	416.149
790.227	424.553
790.355	403.766
790.483	430.511
790.612	419.255
790.740	416.638
790.868	435.957
790.996	421.894
791.124	417.000
791.252	404.957
791.380	422.340
791.508	424.723
791.637	408.574
791.765	398.660
791.893	396.532
792.021	409.936
792.149	402.617
792.277	411.000
792.405	389.149
792.533	417.809
792.662	374.766
792.790	392.787
792.918	413.511
793.046	386.362
793.174	418.043
793.302	403.468
793.430	396.596
793.558	390.894
793.687	397.085
793.815	399.723
793.943	409.064
794.071	412.404
794.199	385.532
794.327	401.383
794.455	466.447
794.583	481.085
794.712	387.787
794.840	391.170
794.968	394.511
795.096	407.787
795.224	374.681
795.352	387.298
795.480	409.957
795.608	391.809
795.737	396.915
795.865	382.511
795.993	372.532
796.121	368.723
796.249	371.489
796.377	384.979
796.505	376.681
796.633	367.106
796.762	368.000
796.890	390.830
797.018	395.957
797.146	370.872
797.274	357.149
797.402	363.745
797.530	387.277
797.658	366.426
797.787	406.723
797.915	363.532
798.043	381.681
798.171	356.574
798.299	368.894
798.427	355.085
798.555	371.021
798.683	344.936
798.812	364.660
798.940	420.638
799.068	360.064
799.196	400.128
799.324	360.213
799.452	368.723
799.580	348.766
799.708	410.085
799.837	341.085
799.965	352.702
800.093	373.851
800.221	334.404
800.349	357.085
800.477	349.574
800.605	354.851
800.733	363.766
800.862	356.426
800.990	393.851
801.118	342.149
801.246	332.723
801.374	360.085
801.502	340.255
801.630	331.809
801.758	346.936
801.887	368.915
802.015	341.766
802.143	323.553
802.271	355.723
802.399	347.979
802.527	333.085
802.655	373.340
802.783	382.426
802.912	347.149
803.040	339.340
803.168	323.043
803.296	321.511
803.424	346.915
803.552	332.830
803.680	334.043
803.808	342.383
803.937	335.617
804.065	322.787
804.193	327.043
804.321	379.255
804.449	318.894
804.577	326.957
804.705	333.915
804.833	360.638
804.962	320.468
805.090	321.489
805.218	339.447
805.346	337.149
805.474	331.702
805.602	350.043
805.730	321.830
805.858	314.617
805.987	329.043
806.115	329.766
806.243	332.553
806.371	355.191
806.499	434.340
806.627	455.277
806.755	428.766
806.883	325.915
807.012	321.426
807.140	345.660
807.268	333.596
807.396	339.021
807.524	307.021
807.652	320.660
807.780	375.617
807.908	310.787
808.037	358.851
808.165	344.851
808.293	323.298
808.421	366.489
808.549	304.170
808.677	309.787
808.805	354.468
808.933	319.787
809.062	337.638
809.190	375.681
809.318	320.872
809.446	312.064
809.574	363.851
809.702	298.511
809.830	325.106
809.958	328.809
810.087	310.447
810.215	339.851
810.343	329.191
810.471	326.872
810.599	308.170
810.727	306.149
810.855	299.191
810.983	298.596
811.112	316.234
811.240	307.766
811.368	325.851
811.496	352.319
811.624	324.064
811.752	303.957
811.880	314.766
812.008	302.830
812.137	329.426
812.265	288.404
812.393	319.383
812.521	327.596
812.649	310.660
812.777	307.128
812.905	334.872
813.033	293.404
813.162	294.234
813.290	296.404
813.418	315.532
813.546	294.957
813.674	293.426
813.802	316.426
813.930	281.809
814.058	293.681
814.187	312.128
814.315	289.617
814.443	310.511
814.571	311.404
814.699	324.766
814.827	300.468
814.955	292.617
815.083	323.809
815.212	315.319
815.340	331.319
815.468	293.170
815.596	305.383
815.724	310.383
815.852	290.170
815.980	295.426
816.108	295.149
816.237	289.894
816.365	296.021
816.493	303.426
816.621	295.447
816.749	299.872
816.877	312.660
817.005	322.660
817.133	308.681
817.262	288.426
817.390	288.426
817.518	287.489
817.646	303.340
817.774	287.979
817.902	282.936
818.030	286.532
818.158	325.936
818.287	304.766
818.415	286.426
818.543	290.957
818.671	311.574
818.799	289.085
818.927	304.809
819.055	305.574
819.183	285.660
819.312	292.298
819.440	280.255
819.568	280.234
819.696	293.894
819.824	306.532
819.952	284.468
820.080	294.574
820.208	282.787
820.337	277.064
820.465	317.511
820.593	288.596
820.721	290.106
820.849	291.553
820.977	279.723
821.105	307.553
821.233	263.702
821.362	304.234
821.490	274.489
821.618	279.617
821.746	278.638
821.874	286.319
822.002	279.681
822.130	284.383
822.258	268.319
822.387	271.043
822.515	295.638
822.643	290.638
822.771	288.511
822.899	286.979
823.027	320.851
823.155	270.191
823.283	264.745
823.412	279.383
823.540	278.957
823.668	330.957
823.796	274.170
823.924	305.128
824.052	307.702
824.180	286.787
824.308	268.234
824.437	267.830
824.565	272.000
824.693	300.234
824.821	286.149
824.949	282.213
825.077	286.638
825.205	310.830
825.333	298.383
825.462	302.936
825.590	280.213
825.718	300.340
825.846	278.383
825.974	262.383
826.102	267.085
826.230	269.979
826.358	285.106
826.487	264.000
826.615	310.894
826.743	261.979
826.871	291.426
826.999	325.617
827.127	281.234
827.255	277.319
827.383	266.021
827.512	292.468
827.640	269.489
827.768	267.277
827.896	285.936
828.024	264.191
828.152	279.021
828.280	272.723
828.408	265.468
828.537	275.532
828.665	279.936
828.793	280.681
828.921	258.638
829.049	289.298
829.177	262.936
829.305	259.213
829.433	269.830
829.562	289.234
829.690	258.106
829.818	295.851
829.946	266.681
830.074	280.851
830.202	289.723
830.330	292.085
830.458	309.915
830.587	271.128
830.715	275.128
830.843	261.149
830.971	279.383
831.099	298.511
831.227	262.532
831.355	261.447
831.483	271.298
831.612	299.383
831.740	263.660
831.868	277.447
831.996	270.298
832.124	259.787
832.252	248.617
832.380	274.468
832.508	324.426
832.637	263.426
832.765	264.915
832.893	301.596
833.021	254.064
833.149	251.787
833.277	271.426
833.405	261.426
833.533	252.170
833.662	268.106
833.790	255.851
833.918	274.021
834.046	310.830
834.174	269.830
834.302	261.340
834.430	253.574
834.558	267.894
834.687	274.362
834.815	250.915
834.943	266.617
835.071	262.809
835.199	265.830
835.327	282.255
835.455	255.511
835.583	298.766
835.712	250.106
835.840	261.043
835.968	261.255
836.096	311.468
836.224	275.681
836.352	250.596
836.480	278.277
836.608	269.489
836.737	254.085
836.865	251.936
836.993	267.149
837.121	265.936
837.249	254.319
837.377	280.170
837.505	264.511
837.633	258.234
837.762	255.000
837.890	295.213
838.018	284.617
838.146	299.574
838.274	275.064
838.402	282.936
838.530	259.383
838.658	246.043
838.787	269.170
838.915	264.234
839.043	246.383
839.171	276.723
839.299	240.851
839.427	255.404
839.555	265.064
839.683	279.021
839.812	281.872
839.940	251.809
840.068	269.362
840.196	268.532
840.324	260.383
840.452	258.830
840.580	290.638
840.708	267.532
840.837	285.149
840.965	254.106
841.093	257.319
841.221	249.234
841.349	261.809
841.477	267.106
841.605	268.128
841.733	252.681
841.862	261.511
841.990	312.277
842.118	237.085
842.246	253.596
842.374	258.553
842.502	237.319
842.630	271.915
842.758	280.638
842.887	254.617
843.015	262.362
843.143	275.319
843.271	258.298
843.399	295.702
843.527	268.574
843.655	244.021
843.783	256.149
843.912	248.809
844.040	281.468
844.168	240.511
844.296	245.745
844.424	240.809
844.552	261.532
844.680	272.617
844.808	268.809
844.937	258.298
845.065	242.702
845.193	268.809
845.321	252.298
845.449	252.000
845.577	258.468
845.705	248.170
845.833	244.170
845.962	263.043
846.090	244.489
846.218	252.809
846.346	260.723
846.474	265.213
846.602	251.319
846.730	286.723
846.858	270.468
846.987	248.809
847.115	241.170
847.243	272.277
847.371	267.894
847.499	266.702
847.627	246.702
847.755	250.128
847.883	258.277
848.012	266.000
848.140	253.894
848.268	267.766
848.396	242.043
848.524	271.000
848.652	234.638
848.780	242.723
848.908	257.617
849.037	247.426
849.165	266.213
849.293	258.213
849.421	270.340
849.549	253.298
849.677	258.085
849.805	256.511
849.933	253.660
850.062	249.574
850.190	252.362
850.318	260.340
850.446	244.489
850.574	237.979
850.702	249.660
850.830	254.638
850.958	262.298
851.087	238.340
851.215	250.021
851.343	249.064
851.471	248.085
851.599	260.404
851.727	252.574
851.855	296.064
851.983	265.702
852.112	247.617
852.240	244.191
852.368	247.745
852.496	247.468
852.624	245.553
852.752	247.426
852.880	228.043
853.008	256.319
853.137	250.702
853.265	265.298
853.393	249.404
853.521	261.340
853.649	256.681
853.777	246.383
853.905	255.851
854.033	244.404
854.162	302.766
854.290	242.319
854.418	236.830
854.546	245.596
854.674	348.170
854.802	254.191
854.930	239.851
855.058	232.766
855.187	241.149
855.315	269.511
855.443	224.085
855.571	236.745
855.699	235.851
855.827	246.787
855.955	241.787
856.083	250.681
856.212	257.085
856.340	242.872
856.468	282.894
856.596	260.830
856.724	250.298
856.852	246.170
856.980	242.043
857.108	263.170
857.237	232.894
857.365	268.915
857.493	239.766
857.621	235.809
857.749	249.085
857.877	259.085
858.005	261.745
858.133	249.426
858.262	247.000
858.390	238.426
858.518	222.830
858.646	237.298
858.774	232.872
858.902	224.106
859.030	245.638
859.158	257.468
859.287	250.936
859.415	273.809
859.543	227.894
859.671	235.447
859.799	263.745
859.927	245.809
860.055	239.277
860.183	251.085
860.312	248.979
860.440	246.106
860.568	246.149
860.696	231.043
860.824	303.106
860.952	288.085
861.080	238.596
861.208	252.149
861.337	252.043
861.465	279.851
861.593	276.298
861.721	245.532
861.849	242.489
861.977	224.447
862.105	250.766
862.233	272.383
862.362	256.468
862.490	263.468
862.618	228.298
862.746	242.936
862.874	236.277
863.002	236.702
863.130	272.170
863.258	246.787
863.387	260.723
863.515	264.404
863.643	248.213
863.771	314.745
863.899	239.489
864.027	235.617
864.155	228.298
864.283	263.809
864.412	237.660
864.540	235.872
864.668	229.745
864.796	246.489
864.924	244.191
865.052	249.830
865.180	232.851
865.308	221.787
865.437	248.809
865.565	245.468
865.693	272.043
865.821	247.957
865.949	262.553
866.077	250.106
866.205	254.979
866.333	252.979
866.462	227.553
866.590	245.043
866.718	256.383
866.846	240.617
866.974	251.574
867.102	256.234
867.230	276.021
867.358	241.447
867.487	235.957
867.615	264.532
867.743	246.957
867.871	247.638
867.999	244.936
868.127	242.128
868.255	292.660
868.383	286.830
868.512	237.426
868.640	236.213
868.768	228.383
868.896	228.489
869.024	266.681
869.152	234.298
869.280	251.340
869.408	269.319
869.537	234.809
869.665	302.957
869.793	232.149
869.921	272.319
870.049	249.404
870.177	251.213
870.305	277.128
870.433	225.957
870.562	254.128
870.690	229.000
870.818	233.532
870.946	245.277
871.074	275.957
871.202	250.957
871.330	261.872
871.458	226.617
871.587	237.745
871.715	245.085
871.843	239.149
871.971	235.915
872.099	243.043
872.227	237.894
872.355	253.468
872.483	248.298
872.612	251.106
872.740	255.638
872.868	238.617
872.996	242.085
873.124	241.681
873.252	244.957
873.380	236.915
873.508	230.553
873.637	253.532
873.765	234.468
873.893	287.830
874.021	245.383
874.149	232.574
874.277	244.851
874.405	229.426
874.533	245.191
874.662	1134.681
874.790	245.702
874.918	280.894
875.046	266.298
875.174	253.213
875.302	221.191
875.430	277.894
875.558	246.170
875.687	252.149
875.815	237.298
875.943	227.128
876.071	251.553
876.199	266.894
876.327	283.085
876.455	239.532
876.583	256.106
876.712	238.106
876.840	249.979
876.968	283.957
877.096	234.766
877.224	222.000
877.352	289.638
877.480	237.043
877.608	245.574
877.737	253.638
877.865	245.085
877.993	259.809
878.121	220.404
878.249	227.660
878.377	238.553
878.505	238.447
878.633	248.170
878.762	241.809
878.890	234.234
879.018	300.170
879.146	250.021
879.274	225.702
879.402	258.106
879.530	252.468
879.658	230.617
879.787	233.596
879.915	237.468
880.043	269.617
880.171	226.660
880.299	256.489
880.427	245.702
880.555	241.872
880.683	264.170
880.812	226.830
880.940	270.191
881.068	222.468
881.196	237.000
881.324	250.447
881.452	229.660
881.580	256.277
881.708	257.830
881.837	253.745
881.965	248.468
882.093	255.681
882.221	230.489
882.349	266.255
882.477	262.213
882.605	254.255
882.733	236.851
882.862	275.872
882.990	250.213
883.118	231.574
883.246	242.745
883.374	241.277
883.502	238.213
883.630	217.809
883.758	237.362
883.887	251.489
884.015	226.681
884.143	235.043
884.271	256.426
884.399	226.340
884.527	244.511
884.655	222.617
884.783	242.574
884.912	261.894
885.040	230.915
885.168	301.383
885.296	235.468
885.424	255.766
885.552	260.043
885.680	240.638
885.808	232.851
885.937	249.617
886.065	253.021
886.193	228.340
886.321	277.596
886.449	230.979
886.577	276.000
886.705	226.702
886.833	231.383
886.962	238.766
887.090	241.000
887.218	239.830
887.346	257.809
887.474	278.170
887.602	250.213
887.730	253.596
887.858	260.745
887.987	233.702
888.115	272.830
888.243	246.383
888.371	243.851
888.499	232.170
888.627	253.766
888.755	253.043
888.883	244.021
889.012	234.574
889.140	248.915
889.268	257.426
889.396	251.851
889.524	238.553
889.652	225.362
889.780	226.532
889.908	271.936
890.037	231.021
890.165	231.234
890.293	256.404
890.421	289.362
890.549	246.787
890.677	248.830
890.805	230.809
890.933	268.681
891.062	240.787
891.190	233.894
891.318	249.128
891.446	241.574
891.574	231.638
891.702	245.362
891.830	236.426
891.958	266.468
892.087	276.745
892.215	246.085
892.343	248.830
892.471	249.043
892.599	236.894
892.727	261.255
892.855	234.787
892.983	229.979
893.112	238.660
893.240	225.766
893.368	268.617
893.496	240.000
893.624	245.319
893.752	303.170
893.880	284.043
894.008	224.362
894.137	243.787
894.265	250.106
894.393	239.681
894.521	242.702
894.649	263.362
894.777	246.319
894.905	226.851
895.033	272.809
895.162	235.149
895.290	279.170
895.418	254.106
895.546	252.043
895.674	323.702
895.802	235.128
895.930	258.957
896.058	223.191
896.187	230.319
896.315	229.319
896.443	231.340
896.571	245.979
896.699	236.468
896.827	250.936
896.955	251.936
897.083	232.213
897.212	274.383
897.340	242.957
897.468	227.064
897.596	233.128
897.724	279.362
897.852	248.426
897.980	241.085
898.108	244.106
898.237	234.936
898.365	231.277
898.493	242.957
898.621	239.489
898.749	237.447
898.877	243.362
899.005	226.191
899.133	237.894
899.262	258.000
899.390	272.383
899.518	241.702
899.646	240.489
899.774	271.617
899.902	322.362
900.030	258.043
900.158	244.574
900.287	255.957
900.415	228.234
900.543	248.872
900.671	240.298
900.799	267.340
900.927	237.426
901.055	231.021
901.183	243.404
901.312	261.106
901.440	256.489
901.568	259.830
901.696	245.255
901.824	256.489
901.952	250.936
902.080	361.128
902.208	270.617
902.337	235.745
902.465	251.277
902.593	246.809
902.721	249.340
902.849	248.979
902.977	257.447
903.105	237.000
903.233	260.043
903.362	243.043
903.490	252.277
903.618	237.426
903.746	259.064
903.874	230.617
904.002	252.106
904.130	253.532
904.258	264.404
904.387	232.596
904.515	259.702
904.643	222.851
904.771	239.723
904.899	261.128
905.027	266.766
905.155	251.894
905.283	243.851
905.412	268.426
905.540	245.596
905.668	237.191
905.796	238.085
905.924	249.170
906.052	245.213
906.180	263.106
906.308	249.532
906.437	276.596
906.565	243.809
906.693	253.021
906.821	228.723
906.949	244.638
907.077	261.574
907.205	248.043
907.333	250.106
907.462	239.660
907.590	238.340
907.718	265.830
907.846	283.319
907.974	241.702
908.102	252.128
908.230	269.298
908.358	281.489
908.487	252.000
908.615	252.489
908.743	253.851
908.871	298.191
908.999	242.574
909.127	278.574
909.255	228.340
909.383	247.404
909.512	282.383
909.640	256.809
909.768	251.128
909.896	291.766
910.024	277.638
910.152	252.106
910.280	292.362
910.408	248.234
910.537	248.532
910.665	279.447
910.793	253.617
910.921	264.255
911.049	239.064
911.177	239.234
911.305	271.596
911.433	256.319
911.562	244.362
911.690	253.511
911.818	309.702
911.946	251.489
912.074	268.447
912.202	290.681
912.330	245.191
912.458	255.681
912.587	269.489
912.715	272.745
912.843	283.170
912.971	274.191
913.099	288.106
913.227	266.170
913.355	254.234
913.483	274.745
913.612	267.830
913.740	384.426
913.868	273.191
