referenz led_at_750.00nm_cut_at_984.50Y_01.dat
24.04.2023
12:24:24
cut middle at Y: 984.50
top cursor: 1008 down cursor: 961 mean of: 47 lines , 2560 datapoints
wavelength(nm)	intensity[arb. units]
585.996	35953.106
586.124	35005.766
586.252	34599.149
586.380	34597.468
586.508	34640.085
586.637	34612.149
586.765	34683.489
586.893	34732.574
587.021	34745.064
587.149	34884.298
587.277	34832.277
587.405	34803.574
587.533	34650.043
587.662	34847.638
587.790	34823.064
587.918	34765.957
588.046	34758.298
588.174	34645.851
588.302	34712.170
588.430	34470.787
588.558	34466.000
588.687	34562.638
588.815	34526.979
588.943	34429.213
589.071	34347.979
589.199	34292.681
589.327	34203.000
589.455	34056.851
589.583	34141.447
589.712	34093.128
589.840	34077.787
589.968	33972.255
590.096	33961.532
590.224	34014.787
590.352	33948.511
590.480	33774.681
590.608	33975.723
590.737	33920.213
590.865	33821.404
590.993	33741.468
591.121	33865.149
591.249	33816.064
591.377	33769.787
591.505	33718.170
591.633	33779.532
591.762	33821.234
591.890	33973.574
592.018	33755.830
592.146	33750.723
592.274	33701.809
592.402	33791.872
592.530	33741.277
592.658	33993.894
592.787	33767.128
592.915	33958.149
593.043	33884.319
593.171	33895.426
593.299	33913.362
593.427	33992.702
593.555	34149.851
593.683	34059.957
593.812	34201.638
593.940	34188.617
594.068	34304.106
594.196	34406.681
594.324	34478.426
594.452	34612.085
594.580	34632.957
594.708	34670.404
594.837	34810.128
594.965	34915.830
595.093	34919.043
595.221	34949.213
595.349	35093.702
595.477	35113.298
595.605	35105.277
595.733	35116.851
595.862	35340.553
595.990	35218.511
596.118	35355.234
596.246	35524.191
596.374	35529.872
596.502	35413.426
596.630	35417.383
596.758	35534.809
596.887	35494.766
597.015	35532.979
597.143	35543.936
597.271	35538.021
597.399	35455.553
597.527	35449.043
597.655	35551.574
597.783	35518.723
597.912	35508.043
598.040	35412.128
598.168	35392.277
598.296	35356.894
598.424	35271.213
598.552	35331.277
598.680	35218.340
598.808	35331.553
598.937	35209.213
599.065	35095.128
599.193	35079.511
599.321	35043.021
599.449	34967.553
599.577	34859.128
599.705	34999.426
599.833	34839.043
599.962	34839.574
600.090	34886.000
600.218	34832.851
600.346	34873.255
600.474	34877.064
600.602	34829.298
600.730	34854.489
600.858	34855.404
600.987	34918.553
601.115	34847.617
601.243	34930.043
601.371	34840.468
601.499	34872.872
601.627	35000.511
601.755	35008.915
601.883	35043.915
602.012	35146.617
602.140	35185.213
602.268	35340.021
602.396	35363.085
602.524	35427.404
602.652	35559.489
602.780	35657.894
602.908	35780.660
603.037	35894.638
603.165	35963.085
603.293	36028.787
603.421	36184.213
603.549	36269.766
603.677	36439.617
603.805	36517.723
603.933	36613.191
604.062	36843.489
604.190	36823.362
604.318	36982.383
604.446	37044.213
604.574	37139.234
604.702	37184.745
604.830	37272.617
604.958	37347.872
605.087	37578.553
605.215	37607.851
605.343	37660.957
605.471	37828.532
605.599	37787.021
605.727	37761.021
605.855	37932.404
605.983	37921.766
606.112	38056.766
606.240	38204.000
606.368	38159.298
606.496	38307.809
606.624	38171.532
606.752	38340.957
606.880	38451.106
607.008	38636.851
607.137	38432.936
607.265	38262.638
607.393	38292.766
607.521	38430.000
607.649	38335.277
607.777	38203.085
607.905	38154.830
608.033	38164.021
608.162	38116.191
608.290	38097.426
608.418	38041.255
608.546	38059.979
608.674	37900.255
608.802	37782.085
608.930	37809.149
609.058	37714.617
609.187	37872.043
609.315	37756.596
609.443	37580.128
609.571	37577.553
609.699	37446.340
609.827	37536.106
609.955	37458.596
610.083	37330.936
610.212	37355.128
610.340	37249.149
610.468	37349.617
610.596	37349.213
610.724	37269.128
610.852	37236.319
610.980	37243.809
611.108	37309.702
611.237	37161.383
611.365	37273.298
611.493	37214.915
611.621	37257.106
611.749	37423.277
611.877	37540.255
612.005	37544.021
612.133	37512.638
612.262	37603.553
612.390	37554.532
612.518	37594.128
612.646	37789.809
612.774	37704.809
612.902	37780.362
613.030	37896.553
613.158	37937.936
613.287	38031.617
613.415	37985.574
613.543	38081.085
613.671	38227.234
613.799	38447.043
613.927	38322.617
614.055	38448.511
614.183	38585.234
614.312	38540.298
614.440	38641.255
614.568	38586.553
614.696	38881.979
614.824	39008.404
614.952	38991.128
615.080	39131.702
615.208	39131.660
615.337	39151.085
615.465	39226.894
615.593	39207.234
615.721	39386.064
615.849	39457.660
615.977	39518.936
616.105	39523.574
616.233	39571.511
616.362	39692.638
616.490	39742.362
616.618	39799.957
616.746	39789.574
616.874	39772.426
617.002	39800.957
617.130	39869.851
617.258	40025.532
617.387	39969.383
617.515	39931.638
617.643	39994.745
617.771	39945.936
617.899	39996.851
618.027	39953.404
618.155	40016.085
618.283	40006.532
618.412	40091.766
618.540	40164.128
618.668	40063.681
618.796	40192.957
618.924	40222.362
619.052	40127.191
619.180	40143.511
619.308	40162.128
619.437	40150.043
619.565	40220.638
619.693	40128.128
619.821	40145.021
619.949	40193.851
620.077	40279.723
620.205	40215.277
620.333	40237.511
620.462	40371.340
620.590	40249.426
620.718	40289.574
620.846	40238.574
620.974	40170.638
621.102	40264.447
621.230	40254.149
621.358	40363.553
621.487	40177.383
621.615	40174.957
621.743	40345.979
621.871	40061.638
621.999	40197.511
622.127	40161.553
622.255	40268.617
622.383	40000.872
622.512	40043.149
622.640	40135.489
622.768	39942.340
622.896	39860.936
623.024	39865.723
623.152	39859.660
623.280	39873.681
623.408	39754.085
623.537	39780.064
623.665	39756.234
623.793	39733.170
623.921	39759.723
624.049	39663.766
624.177	39708.447
624.305	39728.532
624.433	39783.106
624.562	39752.702
624.690	39547.596
624.818	39636.298
624.946	39641.404
625.074	39536.170
625.202	39483.830
625.330	39432.191
625.458	39456.745
625.587	39431.617
625.715	39439.191
625.843	39437.745
625.971	39428.277
626.099	39310.979
626.227	39399.000
626.355	39267.638
626.483	39477.532
626.612	39385.362
626.740	39408.234
626.868	39442.979
626.996	39420.660
627.124	39403.362
627.252	39403.809
627.380	39425.979
627.508	39457.489
627.637	39329.085
627.765	39407.106
627.893	39466.851
628.021	39420.064
628.149	39641.298
628.277	39704.106
628.405	39688.085
628.533	39482.596
628.662	39485.681
628.790	39402.617
628.918	39558.085
629.046	39405.553
629.174	39691.021
629.302	39852.936
629.430	39801.617
629.558	39621.574
629.687	39615.106
629.815	39663.723
629.943	39770.809
630.071	39636.617
630.199	39784.426
630.327	39728.574
630.455	39789.021
630.583	39820.234
630.712	39696.277
630.840	39883.064
630.968	39867.660
631.096	39822.915
631.224	39732.234
631.352	39821.787
631.480	39781.979
631.608	39803.957
631.737	39948.128
631.865	39867.191
631.993	39822.872
632.121	39830.277
632.249	39881.830
632.377	39861.043
632.505	39822.851
632.633	39695.043
632.762	39814.723
632.890	39893.277
633.018	39721.149
633.146	39878.340
633.274	39580.447
633.402	39640.149
633.530	39626.766
633.658	39643.362
633.787	39463.702
633.915	39484.234
634.043	39405.766
634.171	39340.213
634.299	39260.638
634.427	39337.170
634.555	39225.043
634.683	39183.574
634.812	39116.064
634.940	39018.660
635.068	38945.681
635.196	38964.511
635.324	38824.766
635.452	38795.574
635.580	38745.766
635.708	38564.574
635.837	38577.255
635.965	38412.362
636.093	38310.468
636.221	38181.191
636.349	38302.532
636.477	38191.277
636.605	38175.872
636.733	37921.021
636.862	37931.319
636.990	37809.191
637.118	37838.021
637.246	37675.596
637.374	37603.447
637.502	37556.000
637.630	37392.255
637.758	37436.426
637.887	37250.809
638.015	37253.170
638.143	37206.532
638.271	37094.957
638.399	37102.085
638.527	37003.191
638.655	36972.681
638.783	37000.213
638.912	36757.936
639.040	36785.447
639.168	36751.894
639.296	36709.383
639.424	36821.574
639.552	36572.170
639.680	36742.021
639.808	36574.383
639.937	36539.851
640.065	36495.851
640.193	36553.489
640.321	36440.851
640.449	36461.426
640.577	36469.638
640.705	36445.872
640.833	36412.489
640.962	36298.362
641.090	36344.979
641.218	36354.766
641.346	36423.000
641.474	36318.255
641.602	36263.170
641.730	36301.021
641.858	36399.979
641.987	36426.574
642.115	36386.277
642.243	36468.489
642.371	36383.170
642.499	36450.489
642.627	36476.043
642.755	36353.894
642.883	36409.915
643.012	36447.766
643.140	36389.340
643.268	36358.383
643.396	36347.957
643.524	36465.787
643.652	36427.298
643.780	36295.489
643.908	36424.979
644.037	36423.489
644.165	36338.340
644.293	36200.787
644.421	36289.085
644.549	36256.340
644.677	36238.426
644.805	36237.851
644.933	36113.000
645.062	36109.660
645.190	36181.574
645.318	36201.596
645.446	36060.149
645.574	36052.830
645.702	36021.553
645.830	36127.681
645.958	35879.468
646.087	36071.979
646.215	35787.362
646.343	36032.766
646.471	35739.574
646.599	35727.681
646.727	35501.957
646.855	35528.277
646.983	35510.383
647.112	35482.745
647.240	35508.106
647.368	35421.213
647.496	35448.468
647.624	35268.936
647.752	35228.426
647.880	35088.404
648.008	35047.617
648.137	34918.362
648.265	34896.915
648.393	34861.000
648.521	34874.489
648.649	34780.277
648.777	34696.234
648.905	34619.468
649.033	34510.255
649.162	34487.957
649.290	34483.000
649.418	34335.426
649.546	34275.149
649.674	34275.043
649.802	34144.064
649.930	34196.596
650.058	33988.383
650.187	33879.106
650.315	33776.255
650.443	33646.043
650.571	33618.979
650.699	33591.021
650.827	33528.532
650.955	33436.277
651.083	33345.830
651.212	33391.191
651.340	33223.191
651.468	33064.532
651.596	32935.191
651.724	32942.596
651.852	32911.468
651.980	32806.681
652.108	32749.957
652.237	32652.085
652.365	32636.170
652.493	32584.617
652.621	32509.064
652.749	32535.957
652.877	32313.489
653.005	32258.191
653.133	32257.745
653.262	32145.489
653.390	32064.745
653.518	32047.404
653.646	31995.979
653.774	32047.404
653.902	31810.404
654.030	31721.213
654.158	31723.787
654.287	31661.383
654.415	31567.064
654.543	31514.553
654.671	31353.830
654.799	31384.894
654.927	31142.085
655.055	31225.681
655.183	31031.149
655.312	31064.383
655.440	30977.660
655.568	30868.574
655.696	30868.340
655.824	30921.277
655.952	30702.213
656.080	30655.979
656.208	30665.277
656.337	30466.404
656.465	30478.787
656.593	30334.915
656.721	30257.404
656.849	30173.830
656.977	30087.936
657.105	30014.511
657.233	30006.064
657.362	29876.915
657.490	29710.128
657.618	29688.553
657.746	29707.872
657.874	29593.213
658.002	29550.404
658.130	29405.191
658.258	29307.447
658.387	29274.149
658.515	29156.745
658.643	29045.574
658.771	29024.043
658.899	28988.872
659.027	28938.064
659.155	28837.298
659.283	28834.128
659.412	28623.915
659.540	28604.468
659.668	28472.915
659.796	28401.766
659.924	28345.596
660.052	28338.872
660.180	28214.085
660.308	28184.745
660.437	28076.064
660.565	28004.255
660.693	27974.766
660.821	27867.447
660.949	27747.234
661.077	27799.787
661.205	27697.787
661.333	27525.468
661.462	27628.298
661.590	27551.702
661.718	27649.681
661.846	27420.511
661.974	27442.660
662.102	27306.085
662.230	27203.894
662.358	27097.766
662.487	27099.255
662.615	27031.681
662.743	27055.043
662.871	27020.319
662.999	26946.255
663.127	26813.915
663.255	26903.064
663.383	26826.021
663.512	26757.745
663.640	26734.574
663.768	26679.468
663.896	26642.298
664.024	26653.000
664.152	26541.319
664.280	26564.319
664.408	26501.532
664.537	26554.170
664.665	26433.681
664.793	26376.426
664.921	26318.596
665.049	26272.447
665.177	26374.787
665.305	26265.234
665.433	26194.681
665.562	26227.702
665.690	26187.809
665.818	26300.872
665.946	26172.021
666.074	26083.255
666.202	26171.468
666.330	26127.277
666.458	26046.723
666.587	26057.660
666.715	25985.638
666.843	25968.830
666.971	25956.213
667.099	25876.660
667.227	25790.255
667.355	25869.128
667.483	25704.553
667.612	25718.809
667.740	25680.851
667.868	25677.234
667.996	25660.745
668.124	25603.255
668.252	25563.617
668.380	25562.277
668.508	25560.936
668.637	25444.000
668.765	25335.043
668.893	25335.043
669.021	25310.894
669.149	25330.468
669.277	25342.745
669.405	25079.383
669.533	25053.085
669.662	25321.936
669.790	24983.872
669.918	24983.234
670.046	24876.191
670.174	24916.681
670.302	24839.532
670.430	24664.532
670.558	24609.894
670.687	24532.277
670.815	24667.426
670.943	24467.638
671.071	24407.277
671.199	24393.787
671.327	24210.574
671.455	24215.362
671.583	24049.489
671.712	24193.766
671.840	24003.617
671.968	23759.596
672.096	23830.638
672.224	23759.723
672.352	23813.830
672.480	23549.213
672.608	23512.638
672.737	23356.447
672.865	23433.255
672.993	23224.404
673.121	23041.894
673.249	23058.277
673.377	22967.362
673.505	22876.766
673.633	22775.936
673.762	22747.915
673.890	22661.766
674.018	22837.894
674.146	22517.787
674.274	22399.957
674.402	22434.468
674.530	22192.596
674.658	22112.872
674.787	22043.511
674.915	21939.277
675.043	21932.681
675.171	21782.894
675.299	21679.596
675.427	21630.702
675.555	21469.170
675.683	21471.936
675.812	21372.383
675.940	21300.064
676.068	21184.191
676.196	21123.702
676.324	21030.553
676.452	20923.660
676.580	20809.660
676.708	20821.787
676.837	20719.128
676.965	20597.532
677.093	20509.404
677.221	20421.830
677.349	20436.979
677.477	20359.213
677.605	20250.489
677.733	20204.957
677.862	20095.213
677.990	19996.511
678.118	19929.106
678.246	19818.298
678.374	19869.362
678.502	19655.936
678.630	19627.894
678.758	19557.255
678.887	19514.128
679.015	19460.894
679.143	19395.170
679.271	19303.574
679.399	19305.936
679.527	19227.340
679.655	19176.128
679.783	19126.191
679.912	19046.340
680.040	18971.489
680.168	18902.277
680.296	18801.362
680.424	18747.979
680.552	18708.638
680.680	18732.915
680.808	18634.191
680.937	18550.809
681.065	18464.660
681.193	18472.149
681.321	18416.915
681.449	18346.426
681.577	18386.617
681.705	18294.234
681.833	18222.149
681.962	18180.106
682.090	18269.404
682.218	18114.723
682.346	18090.596
682.474	18078.298
682.602	17968.489
682.730	17989.213
682.858	17891.383
682.987	17953.660
683.115	17831.340
683.243	17864.723
683.371	17762.596
683.499	17831.915
683.627	17771.000
683.755	17740.404
683.883	17812.468
684.012	17625.638
684.140	17568.979
684.268	17518.681
684.396	17512.596
684.524	17542.894
684.652	17556.957
684.780	17463.532
684.908	17452.468
685.037	17403.106
685.165	17291.979
685.293	17283.085
685.421	17305.702
685.549	17247.064
685.677	17151.128
685.805	17229.191
685.933	17144.404
686.062	17041.723
686.190	17042.255
686.318	17034.830
686.446	16940.298
686.574	16892.957
686.702	16902.596
686.830	16800.043
686.958	16741.894
687.087	16731.340
687.215	16734.426
687.343	16598.872
687.471	16579.043
687.599	16481.064
687.727	16658.553
687.855	16523.489
687.983	16433.021
688.112	16421.170
688.240	16287.702
688.368	16288.596
688.496	16314.872
688.624	16252.936
688.752	16126.426
688.880	16103.532
689.008	16050.298
689.137	16037.681
689.265	15936.426
689.393	15903.255
689.521	15836.745
689.649	15854.894
689.777	15770.787
689.905	15748.660
690.033	15682.340
690.162	15646.404
690.290	15573.660
690.418	15489.021
690.546	15565.149
690.674	15501.766
690.802	15334.723
690.930	15309.128
691.058	15326.426
691.187	15201.426
691.315	15168.915
691.443	15233.085
691.571	15064.234
691.699	15114.957
691.827	15059.553
691.955	14961.809
692.083	14879.532
692.212	14951.936
692.340	14757.574
692.468	14768.787
692.596	14706.936
692.724	14821.979
692.852	14613.106
692.980	14636.255
693.108	14533.468
693.237	14488.617
693.365	14407.340
693.493	14316.043
693.621	14307.489
693.749	14217.362
693.877	14176.468
694.005	14216.170
694.133	14022.766
694.262	14022.766
694.390	13948.745
694.518	13982.319
694.646	13891.830
694.774	13917.511
694.902	13903.426
695.030	13804.851
695.158	13643.638
695.287	13687.468
695.415	13681.000
695.543	13523.957
695.671	13669.128
695.799	13503.085
695.927	13466.404
696.055	13370.915
696.183	13386.596
696.312	13335.681
696.440	13441.128
696.568	13333.872
696.696	13242.489
696.824	13104.255
696.952	13117.319
697.080	13110.213
697.208	12975.000
697.337	13018.979
697.465	12886.319
697.593	12785.085
697.721	12829.404
697.849	12793.511
697.977	12699.277
698.105	12725.447
698.233	12620.936
698.362	12638.340
698.490	12544.596
698.618	12509.745
698.746	12569.000
698.874	12419.106
699.002	12568.702
699.130	12299.489
699.258	12294.936
699.387	12166.681
699.515	12215.574
699.643	12114.574
699.771	12173.255
699.899	12071.298
700.027	12040.426
700.155	11915.298
700.283	11920.979
700.412	11871.532
700.540	11804.936
700.668	11737.170
700.796	11685.128
700.924	11608.617
701.052	11594.617
701.180	11704.979
701.308	11565.383
701.437	11440.447
701.565	11415.255
701.693	11315.340
701.821	11338.979
701.949	11330.617
702.077	11281.574
702.205	11151.830
702.333	11088.106
702.462	11062.745
702.590	11026.128
702.718	10965.149
702.846	10887.489
702.974	10876.745
703.102	10822.745
703.230	10836.191
703.358	10714.043
703.487	10624.340
703.615	10785.085
703.743	10539.064
703.871	10500.404
703.999	10491.447
704.127	10505.426
704.255	10293.383
704.383	10481.596
704.512	10251.553
704.640	10202.191
704.768	10117.617
704.896	10149.106
705.024	10029.702
705.152	10083.213
705.280	9924.809
705.408	9918.809
705.537	9881.362
705.665	9797.362
705.793	9705.234
705.921	9661.745
706.049	9627.809
706.177	9579.851
706.305	9560.872
706.433	9574.447
706.562	9437.383
706.690	9371.149
706.818	9289.830
706.946	9521.085
707.074	9260.426
707.202	9165.319
707.330	9236.234
707.458	9151.383
707.587	9073.787
707.715	9012.043
707.843	9084.404
707.971	8995.255
708.099	9002.745
708.227	8859.362
708.355	8832.149
708.483	8754.574
708.612	8740.426
708.740	8705.702
708.868	8775.383
708.996	8626.149
709.124	8647.745
709.252	8585.213
709.380	8521.319
709.508	8545.511
709.637	8446.532
709.765	8429.894
709.893	8403.957
710.021	8396.894
710.149	8312.489
710.277	8311.277
710.405	8230.915
710.533	8255.872
710.662	8200.340
710.790	8148.255
710.918	8138.915
711.046	8087.553
711.174	8064.553
711.302	8041.681
711.430	8071.021
711.558	7951.915
711.687	7919.043
711.815	7923.574
711.943	7925.723
712.071	7851.851
712.199	7856.702
712.327	7834.745
712.455	7768.234
712.583	7766.213
712.712	7712.404
712.840	7673.489
712.968	7674.638
713.096	7677.702
713.224	7526.809
713.352	7565.000
713.480	7525.106
713.608	7519.830
713.737	7498.979
713.865	7483.277
713.993	7514.723
714.121	7405.064
714.249	7422.532
714.377	7422.851
714.505	7390.489
714.633	7497.021
714.762	7341.511
714.890	7243.085
715.018	7280.532
715.146	7265.617
715.274	7254.872
715.402	7346.511
715.530	7240.574
715.658	7132.468
715.787	7115.447
715.915	7257.191
716.043	7047.362
716.171	7071.468
716.299	7132.255
716.427	7025.787
716.555	6996.489
716.683	6931.809
716.812	6935.702
716.940	6963.787
717.068	6810.766
717.196	7018.532
717.324	6934.894
717.452	6806.766
717.580	6734.021
717.708	6742.553
717.837	6756.638
717.965	6672.340
718.093	6663.894
718.221	6636.809
718.349	6611.553
718.477	6619.234
718.605	6623.468
718.733	6544.043
718.862	6526.106
718.990	6463.426
719.118	6467.362
719.246	6385.128
719.374	6452.532
719.502	6393.021
719.630	6534.787
719.758	6295.149
719.887	6257.638
720.015	6443.213
720.143	6197.255
720.271	6197.213
720.399	6222.553
720.527	6226.468
720.655	6204.106
720.783	6196.702
720.912	6041.021
721.040	6058.298
721.168	6014.106
721.296	6028.426
721.424	5946.851
721.552	5834.936
721.680	5879.872
721.808	5878.426
721.937	5852.574
722.065	5923.362
722.193	5901.596
722.321	5771.085
722.449	5698.064
722.577	5700.277
722.705	5660.809
722.833	5634.511
722.962	5636.979
723.090	5532.617
723.218	5504.787
723.346	5486.979
723.474	5485.915
723.602	5579.574
723.730	5489.255
723.858	5551.766
723.987	5404.340
724.115	5446.894
724.243	5338.170
724.371	5336.277
724.499	5340.255
724.627	5214.170
724.755	5170.830
724.883	5189.468
725.012	5196.404
725.140	5198.489
725.268	5131.447
725.396	5033.128
725.524	5066.830
725.652	5042.170
725.780	5011.660
725.908	5069.383
726.037	5131.660
726.165	4882.745
726.293	4874.106
726.421	4859.298
726.549	4853.787
726.677	4833.085
726.805	4789.638
726.933	4737.298
727.062	4789.702
727.190	4742.723
727.318	4626.894
727.446	4679.191
727.574	4644.511
727.702	4774.234
727.830	4580.553
727.958	4637.064
728.087	4572.553
728.215	4671.809
728.343	4592.872
728.471	4462.660
728.599	4445.723
728.727	4542.787
728.855	4406.553
728.983	4389.936
729.112	4420.894
729.240	4364.489
729.368	4408.255
729.496	4367.553
729.624	4354.979
729.752	4280.170
729.880	4318.872
730.008	4237.085
730.137	4219.809
730.265	4375.000
730.393	4202.574
730.521	4304.681
730.649	4186.532
730.777	4178.894
730.905	4130.809
731.033	4217.574
731.162	4332.745
731.290	4216.596
731.418	4270.319
731.546	4235.957
731.674	4099.043
731.802	4128.872
731.930	3994.894
732.058	3967.085
732.187	3969.766
732.315	3937.660
732.443	3877.915
732.571	4065.617
732.699	3958.106
732.827	3922.489
732.955	3869.894
733.083	3801.191
733.212	3856.957
733.340	3882.723
733.468	3877.000
733.596	3774.915
733.724	3763.191
733.852	3733.511
733.980	3744.936
734.108	3908.000
734.237	3784.681
734.365	3772.936
734.493	3664.511
734.621	3651.532
734.749	3641.936
734.877	3654.383
735.005	3640.787
735.133	3680.894
735.262	3662.574
735.390	3539.362
735.518	3686.191
735.646	3514.574
735.774	3510.489
735.902	3515.234
736.030	3447.064
736.158	3546.532
736.287	3432.255
736.415	3655.064
736.543	3433.979
736.671	3401.979
736.799	3401.426
736.927	3437.681
737.055	3377.936
737.183	3427.787
737.312	3416.830
737.440	3359.787
737.568	3366.660
737.696	3286.128
737.824	3348.766
737.952	3349.894
738.080	3270.660
738.208	3251.106
738.337	3261.894
738.465	3267.234
738.593	3188.426
738.721	3141.553
738.849	3184.979
738.977	3183.936
739.105	3198.255
739.233	3105.553
739.362	3125.979
739.490	3030.468
739.618	3039.383
739.746	3022.404
739.874	3215.787
740.002	3155.128
740.130	3080.191
740.258	2979.851
740.387	2901.021
740.515	3100.574
740.643	2892.957
740.771	2959.830
740.899	2902.383
741.027	2969.660
741.155	3016.426
741.283	2823.702
741.412	2831.915
741.540	2856.830
741.668	2935.340
741.796	2992.340
741.924	2853.979
742.052	2775.489
742.180	2973.979
742.308	2757.362
742.437	2759.809
742.565	2864.404
742.693	2934.255
742.821	2820.702
742.949	2744.255
743.077	2707.340
743.205	2670.766
743.333	2669.191
743.462	2669.979
743.590	2717.170
743.718	2623.574
743.846	2625.723
743.974	2645.277
744.102	2779.809
744.230	2637.574
744.358	2620.426
744.487	2572.851
744.615	2621.085
744.743	2554.106
744.871	2532.936
744.999	2614.277
745.127	2591.915
745.255	2541.596
745.383	2564.574
745.512	2576.191
745.640	2505.170
745.768	2535.277
745.896	2539.213
746.024	2528.340
746.152	2509.596
746.280	2533.149
746.408	2509.191
746.537	2561.894
746.665	2508.553
746.793	2494.660
746.921	2520.255
747.049	2544.553
747.177	2515.532
747.305	2492.489
747.433	2510.787
747.562	2460.340
747.690	2467.511
747.818	2453.362
747.946	2433.021
748.074	2537.532
748.202	2466.872
748.330	2439.766
748.458	2425.255
748.587	2383.915
748.715	2372.404
748.843	2396.489
748.971	2378.915
749.099	2390.106
749.227	2371.702
749.355	2329.915
749.483	2348.106
749.612	2307.468
749.740	2332.787
749.868	2316.426
749.996	2305.128
750.124	2290.255
750.252	2300.277
750.380	2285.872
750.508	2256.000
750.637	2260.447
750.765	2272.383
750.893	2244.213
751.021	2267.362
751.149	2249.362
751.277	2265.128
751.405	2257.383
751.533	2266.468
751.662	2196.213
751.790	2204.936
751.918	2169.426
752.046	2195.702
752.174	2143.617
752.302	2193.702
752.430	2150.574
752.558	2097.638
752.687	2128.128
752.815	2119.702
752.943	2096.532
753.071	2079.787
753.199	2078.298
753.327	2133.830
753.455	2055.043
753.583	2031.957
753.712	2049.574
753.840	2022.383
753.968	2006.957
754.096	2037.766
754.224	1987.298
754.352	1995.830
754.480	1973.426
754.608	1972.787
754.737	1974.723
754.865	2002.723
754.993	1940.532
755.121	1930.596
755.249	2006.830
755.377	1925.851
755.505	1914.957
755.633	1932.064
755.762	1905.894
755.890	1958.277
756.018	1933.979
756.146	1874.021
756.274	1855.489
756.402	1860.234
756.530	1842.957
756.658	1872.979
756.787	1854.830
756.915	1804.766
757.043	1825.915
757.171	1811.149
757.299	1798.766
757.427	1784.809
757.555	1780.340
757.683	1800.957
757.812	1743.979
757.940	1762.383
758.068	1710.319
758.196	1707.340
758.324	1710.021
758.452	1798.915
758.580	1688.298
758.708	1705.915
758.837	1681.660
758.965	1778.872
759.093	1674.596
759.221	1646.574
759.349	1658.319
759.477	1639.085
759.605	1639.404
759.733	1623.319
759.862	1620.191
759.990	1603.149
760.118	1611.957
760.246	1578.574
760.374	1606.383
760.502	1596.277
760.630	1574.702
760.758	1559.617
760.887	1531.277
761.015	1563.298
761.143	1527.234
761.271	1532.128
761.399	1504.723
761.527	1512.872
761.655	1521.383
761.783	1504.319
761.912	1496.681
762.040	1478.277
762.168	1514.979
762.296	1484.468
762.424	1470.723
762.552	1472.213
762.680	1518.064
762.808	1438.277
762.937	1462.681
763.065	1507.340
763.193	1486.128
763.321	1433.106
763.449	1398.830
763.577	1422.957
763.705	1417.404
763.833	1479.213
763.962	1394.277
764.090	1379.298
764.218	1410.234
764.346	1411.489
764.474	1358.766
764.602	1367.468
764.730	1353.596
764.858	1373.532
764.987	1368.830
765.115	1393.532
765.243	1342.894
765.371	1336.255
765.499	1306.319
765.627	1314.064
765.755	1312.085
765.883	1318.319
766.012	1300.128
766.140	1296.489
766.268	1302.702
766.396	1268.660
766.524	1284.723
766.652	1268.915
766.780	1262.851
766.908	1267.447
767.037	1268.851
767.165	1275.660
767.293	1315.191
767.421	1239.766
767.549	1244.468
767.677	1248.745
767.805	1222.404
767.933	1245.404
768.062	1240.000
768.190	1195.532
768.318	1203.319
768.446	1215.702
768.574	1226.277
768.702	1225.851
768.830	1188.277
768.958	1199.447
769.087	1170.915
769.215	1177.553
769.343	1166.553
769.471	1159.702
769.599	1192.319
769.727	1172.468
769.855	1149.191
769.983	1139.255
770.112	1129.638
770.240	1125.362
770.368	1136.149
770.496	1113.021
770.624	1099.681
770.752	1119.468
770.880	1145.489
771.008	1111.702
771.137	1093.957
771.265	1128.234
771.393	1100.915
771.521	1097.213
771.649	1077.830
771.777	1089.553
771.905	1088.660
772.033	1090.255
772.162	1089.447
772.290	1067.340
772.418	1111.915
772.546	1076.809
772.674	1053.489
772.802	1056.617
772.930	1090.872
773.058	1025.468
773.187	1044.638
773.315	1041.596
773.443	1031.043
773.571	1032.106
773.699	1019.213
773.827	1006.872
773.955	1050.191
774.083	1026.489
774.212	1013.532
774.340	1037.596
774.468	998.766
774.596	1004.213
774.724	1000.298
774.852	995.021
774.980	987.021
775.108	983.809
775.237	985.638
775.365	987.191
775.493	960.298
775.621	964.638
775.749	970.128
775.877	955.574
776.005	952.213
776.133	963.702
776.262	959.745
776.390	925.511
776.518	960.340
776.646	933.191
776.774	958.596
776.902	924.511
777.030	923.298
777.158	936.404
777.287	939.936
777.415	891.532
777.543	903.915
777.671	885.021
777.799	894.638
777.927	898.851
778.055	903.277
778.183	890.787
778.312	862.191
778.440	869.702
778.568	889.170
778.696	875.191
778.824	894.149
778.952	873.915
779.080	855.170
779.208	875.128
779.337	857.064
779.465	852.234
779.593	848.383
779.721	870.511
779.849	840.255
779.977	837.489
780.105	810.872
780.233	854.106
780.362	850.000
780.490	859.936
780.618	825.596
780.746	824.128
780.874	793.809
781.002	811.723
781.130	803.106
781.258	782.702
781.387	809.681
781.515	822.894
781.643	782.489
781.771	832.660
781.899	775.553
782.027	827.660
782.155	807.106
782.283	779.043
782.412	767.617
782.540	764.149
782.668	788.936
782.796	752.723
782.924	782.489
783.052	749.915
783.180	772.404
783.308	744.553
783.437	749.787
783.565	751.234
783.693	758.234
783.821	740.149
783.949	727.085
784.077	739.681
784.205	728.574
784.333	777.234
784.462	705.319
784.590	723.489
784.718	738.660
784.846	706.191
784.974	741.681
785.102	761.617
785.230	715.809
785.358	753.383
785.487	712.234
785.615	693.340
785.743	701.957
785.871	695.277
785.999	689.957
786.127	679.830
786.255	697.149
786.383	707.447
786.512	707.106
786.640	684.638
786.768	698.830
786.896	668.957
787.024	673.894
787.152	665.383
787.280	662.830
787.408	662.426
787.537	683.170
787.665	654.574
787.793	689.574
787.921	664.447
788.049	668.830
788.177	648.766
788.305	638.170
788.433	676.277
788.562	632.340
788.690	637.787
788.818	644.915
788.946	652.426
789.074	630.660
789.202	658.872
789.330	642.170
789.458	631.426
789.587	685.340
789.715	630.638
789.843	636.681
789.971	633.234
790.099	616.489
790.227	631.085
790.355	613.979
790.483	650.723
790.612	618.787
790.740	623.851
790.868	626.617
790.996	628.000
791.124	614.468
791.252	610.277
791.380	616.638
791.508	619.404
791.637	606.170
791.765	590.936
791.893	586.234
792.021	601.191
792.149	597.511
792.277	605.596
792.405	581.787
792.533	596.553
792.662	571.234
792.790	580.766
792.918	600.766
793.046	582.149
793.174	600.830
793.302	591.170
793.430	578.830
793.558	571.809
793.687	580.617
793.815	575.149
793.943	594.043
794.071	584.340
794.199	579.766
794.327	569.979
794.455	633.553
794.583	649.745
794.712	557.383
794.840	548.426
794.968	559.809
795.096	575.191
795.224	545.064
795.352	555.660
795.480	576.894
795.608	570.277
795.737	550.979
795.865	542.085
795.993	520.404
796.121	517.404
796.249	543.872
796.377	545.043
796.505	532.383
796.633	517.213
796.762	526.787
796.890	533.957
797.018	545.106
797.146	518.426
797.274	507.468
797.402	519.064
797.530	529.383
797.658	518.979
797.787	551.809
797.915	519.596
798.043	518.298
798.171	496.298
798.299	516.000
798.427	498.191
798.555	515.787
798.683	490.660
798.812	510.447
798.940	564.319
799.068	495.213
799.196	541.915
799.324	485.681
799.452	510.894
799.580	481.426
799.708	544.255
799.837	482.553
799.965	484.447
800.093	498.319
800.221	465.128
800.349	484.723
800.477	481.021
800.605	490.511
800.733	494.191
800.862	483.149
800.990	507.043
801.118	458.915
801.246	465.021
801.374	483.979
801.502	462.426
801.630	453.191
801.758	466.277
801.887	488.936
802.015	460.511
802.143	453.957
802.271	478.702
802.399	450.426
802.527	444.000
802.655	491.362
802.783	497.064
802.912	458.702
803.040	455.149
803.168	436.532
803.296	431.021
803.424	455.511
803.552	442.702
803.680	440.702
803.808	446.426
803.937	451.340
804.065	430.213
804.193	441.340
804.321	489.511
804.449	428.532
804.577	433.000
804.705	438.000
804.833	461.915
804.962	420.234
805.090	433.128
805.218	443.362
805.346	439.000
805.474	442.872
805.602	456.149
805.730	421.213
805.858	411.660
805.987	432.319
806.115	425.362
806.243	432.511
806.371	449.064
806.499	532.489
806.627	548.617
806.755	526.447
806.883	436.681
807.012	412.000
807.140	433.532
807.268	430.851
807.396	435.043
807.524	401.043
807.652	415.681
807.780	476.915
807.908	409.872
808.037	453.660
808.165	428.043
808.293	416.681
808.421	456.723
808.549	397.723
808.677	406.638
808.805	447.362
808.933	406.362
809.062	419.191
809.190	464.213
809.318	402.957
809.446	401.085
809.574	451.830
809.702	386.234
809.830	402.596
809.958	412.766
810.087	398.809
810.215	421.723
810.343	406.617
810.471	405.979
810.599	386.638
810.727	387.638
810.855	376.191
810.983	377.021
811.112	395.553
811.240	393.638
811.368	405.809
811.496	429.702
811.624	396.447
811.752	375.936
811.880	388.851
812.008	372.000
812.137	403.468
812.265	365.957
812.393	396.000
812.521	410.170
812.649	386.234
812.777	373.000
812.905	420.319
813.033	370.298
813.162	371.213
813.290	377.170
813.418	389.723
813.546	374.149
813.674	368.234
813.802	385.468
813.930	359.979
814.058	364.170
814.187	378.787
814.315	364.149
814.443	376.234
814.571	387.915
814.699	402.043
814.827	366.851
814.955	361.255
815.083	391.277
815.212	382.426
815.340	398.149
815.468	365.255
815.596	365.617
815.724	378.128
815.852	354.511
815.980	355.128
816.108	361.979
816.237	356.511
816.365	370.468
816.493	366.085
816.621	347.383
816.749	362.936
816.877	363.106
817.005	383.149
817.133	369.021
817.262	345.638
817.390	358.766
817.518	346.660
817.646	368.574
817.774	345.809
817.902	345.298
818.030	344.340
818.158	388.085
818.287	373.702
818.415	337.936
818.543	349.362
818.671	363.702
818.799	345.702
818.927	358.340
819.055	349.447
819.183	342.277
819.312	349.702
819.440	339.043
819.568	338.872
819.696	344.340
819.824	365.596
819.952	333.447
820.080	348.553
820.208	345.106
820.337	333.915
820.465	372.489
820.593	341.447
820.721	342.106
820.849	344.213
820.977	331.830
821.105	349.872
821.233	318.447
821.362	355.979
821.490	316.851
821.618	331.596
821.746	330.085
821.874	337.702
822.002	327.553
822.130	334.383
822.258	312.681
822.387	323.574
822.515	344.872
822.643	339.702
822.771	335.979
822.899	331.106
823.027	371.979
823.155	317.596
823.283	307.957
823.412	336.574
823.540	327.277
823.668	374.553
823.796	318.000
823.924	349.277
824.052	349.872
824.180	328.213
824.308	316.213
824.437	311.745
824.565	318.979
824.693	340.851
824.821	331.872
824.949	328.319
825.077	324.234
825.205	359.617
825.333	333.936
825.462	340.340
825.590	321.915
825.718	342.383
825.846	315.915
825.974	310.277
826.102	312.957
826.230	311.915
826.358	324.660
826.487	307.596
826.615	355.617
826.743	304.362
826.871	332.191
826.999	365.660
827.127	317.936
827.255	315.660
827.383	300.064
827.512	335.149
827.640	306.426
827.768	299.830
827.896	321.255
828.024	312.894
828.152	308.085
828.280	317.489
828.408	301.532
828.537	303.723
828.665	322.468
828.793	315.511
828.921	295.404
829.049	324.021
829.177	302.979
829.305	296.511
829.433	311.936
829.562	318.681
829.690	297.936
829.818	336.191
829.946	298.809
830.074	312.128
830.202	321.532
830.330	327.426
830.458	350.213
830.587	309.149
830.715	309.064
830.843	299.000
830.971	310.468
831.099	326.511
831.227	295.787
831.355	302.234
831.483	311.340
831.612	325.426
831.740	302.851
831.868	310.128
831.996	303.894
832.124	299.298
832.252	275.000
832.380	315.000
832.508	351.872
832.637	296.681
832.765	296.979
832.893	331.957
833.021	289.532
833.149	287.957
833.277	295.511
833.405	295.170
833.533	292.468
833.662	302.043
833.790	297.319
833.918	302.064
834.046	336.362
834.174	303.170
834.302	288.830
834.430	289.830
834.558	293.489
834.687	305.191
834.815	279.638
834.943	300.553
835.071	294.000
835.199	293.064
835.327	310.660
835.455	281.511
835.583	323.851
835.712	285.872
835.840	294.362
835.968	289.128
836.096	341.638
836.224	297.979
836.352	275.362
836.480	301.809
836.608	294.574
836.737	285.191
836.865	285.383
836.993	298.149
837.121	285.596
837.249	277.745
837.377	307.426
837.505	292.872
837.633	281.085
837.762	283.447
837.890	317.404
838.018	314.426
838.146	325.957
838.274	297.617
838.402	307.489
838.530	280.787
838.658	270.298
838.787	291.000
838.915	289.404
839.043	272.255
839.171	316.723
839.299	271.723
839.427	287.809
839.555	286.511
839.683	303.553
839.812	313.277
839.940	271.085
840.068	293.170
840.196	293.702
840.324	282.383
840.452	278.447
840.580	319.149
840.708	281.617
840.837	320.064
840.965	271.787
841.093	288.149
841.221	278.830
841.349	292.170
841.477	300.277
841.605	290.085
841.733	282.277
841.862	276.149
841.990	328.128
842.118	262.106
842.246	272.660
842.374	280.872
842.502	263.915
842.630	292.277
842.758	303.894
842.887	272.191
843.015	272.000
843.143	302.277
843.271	273.234
843.399	314.936
843.527	283.255
843.655	267.511
843.783	282.106
843.912	269.298
844.040	298.447
844.168	267.213
844.296	270.085
844.424	264.809
844.552	284.617
844.680	291.021
844.808	291.404
844.937	273.404
845.065	277.894
845.193	291.234
845.321	274.553
845.449	275.489
845.577	272.085
845.705	268.298
845.833	266.979
845.962	285.851
846.090	265.532
846.218	276.468
846.346	284.191
846.474	277.979
846.602	266.128
846.730	311.936
846.858	291.085
846.987	274.404
847.115	262.277
847.243	291.234
847.371	295.979
847.499	284.702
847.627	267.851
847.755	262.830
847.883	276.085
848.012	283.979
848.140	273.255
848.268	285.957
848.396	257.851
848.524	288.447
848.652	252.404
848.780	268.830
848.908	275.021
849.037	266.660
849.165	280.574
849.293	277.447
849.421	285.319
849.549	271.766
849.677	272.787
849.805	275.553
849.933	275.213
850.062	267.021
850.190	272.681
850.318	278.489
850.446	263.213
850.574	259.979
850.702	272.106
850.830	267.043
850.958	283.383
851.087	257.830
851.215	276.021
851.343	263.574
851.471	267.936
851.599	276.426
851.727	270.298
851.855	320.362
851.983	272.511
852.112	266.830
852.240	260.043
852.368	268.851
852.496	267.660
852.624	261.000
852.752	271.553
852.880	246.979
853.008	270.128
853.137	276.723
853.265	282.149
853.393	264.277
853.521	275.106
853.649	269.915
853.777	258.936
853.905	272.681
854.033	261.085
854.162	328.404
854.290	262.213
854.418	250.723
854.546	260.319
854.674	363.979
854.802	263.255
854.930	253.149
855.058	247.149
855.187	248.660
855.315	282.915
855.443	249.362
855.571	252.489
855.699	258.830
855.827	257.383
855.955	255.277
856.083	263.851
856.212	269.574
856.340	255.106
856.468	308.638
856.596	289.511
856.724	266.851
856.852	258.489
856.980	258.745
857.108	271.660
857.237	251.638
857.365	280.574
857.493	258.213
857.621	247.681
857.749	268.085
857.877	272.064
858.005	277.723
858.133	262.426
858.262	256.128
858.390	253.085
858.518	241.191
858.646	251.617
858.774	254.170
858.902	237.426
859.030	253.447
859.158	262.957
859.287	271.064
859.415	285.936
859.543	248.851
859.671	249.979
859.799	271.681
859.927	268.894
860.055	255.298
860.183	260.426
860.312	256.702
860.440	262.106
860.568	260.128
860.696	243.468
860.824	321.660
860.952	301.809
861.080	272.872
861.208	261.021
861.337	264.872
861.465	288.957
861.593	286.489
861.721	256.234
861.849	257.404
861.977	245.638
862.105	263.702
862.233	284.723
862.362	269.213
862.490	286.702
862.618	255.660
862.746	260.106
862.874	248.660
863.002	254.936
863.130	282.362
863.258	268.830
863.387	267.021
863.515	276.957
863.643	268.468
863.771	323.957
863.899	259.553
864.027	247.638
864.155	247.830
864.283	278.745
864.412	254.787
864.540	255.957
864.668	246.340
864.796	252.660
864.924	262.681
865.052	264.766
865.180	248.660
865.308	240.191
865.437	261.468
865.565	263.638
865.693	288.234
865.821	262.894
865.949	274.638
866.077	252.872
866.205	265.681
866.333	266.404
866.462	246.638
866.590	264.149
866.718	267.511
866.846	251.681
866.974	264.936
867.102	278.362
867.230	288.745
867.358	265.447
867.487	251.000
867.615	273.681
867.743	260.213
867.871	260.511
867.999	262.617
868.127	254.468
868.255	308.787
868.383	298.617
868.512	254.979
868.640	257.277
868.768	243.511
868.896	243.362
869.024	279.830
869.152	258.234
869.280	267.660
869.408	293.681
869.537	255.638
869.665	321.426
869.793	250.170
869.921	288.894
870.049	259.447
870.177	263.021
870.305	296.191
870.433	239.787
870.562	269.681
870.690	248.085
870.818	248.255
870.946	263.936
871.074	289.085
871.202	266.894
871.330	277.532
871.458	239.511
871.587	254.851
871.715	261.532
871.843	253.745
871.971	250.979
872.099	262.298
872.227	251.809
872.355	269.340
872.483	262.702
872.612	267.489
872.740	258.851
872.868	252.106
872.996	260.596
873.124	256.362
873.252	251.617
873.380	251.809
873.508	244.468
873.637	272.021
873.765	252.362
873.893	303.383
874.021	256.957
874.149	243.936
874.277	264.106
874.405	252.660
874.533	252.660
874.662	1150.809
874.790	262.255
874.918	300.043
875.046	282.915
875.174	268.234
875.302	242.277
875.430	287.191
875.558	268.596
875.687	271.340
875.815	263.574
875.943	251.128
876.071	274.426
876.199	285.489
876.327	303.511
876.455	261.787
876.583	272.511
876.712	254.447
876.840	275.532
876.968	297.553
877.096	258.851
877.224	248.085
877.352	305.532
877.480	256.660
877.608	264.957
877.737	275.553
877.865	255.745
877.993	274.213
878.121	238.574
878.249	244.830
878.377	252.234
878.505	260.830
878.633	265.000
878.762	264.915
878.890	251.660
879.018	323.681
879.146	265.000
879.274	245.851
879.402	276.191
879.530	261.809
879.658	248.617
879.787	255.234
879.915	252.319
880.043	288.681
880.171	247.596
880.299	271.191
880.427	271.170
880.555	267.255
880.683	283.851
880.812	249.106
880.940	286.915
881.068	245.021
881.196	254.787
881.324	270.936
881.452	245.213
881.580	278.404
881.708	278.255
881.837	277.234
881.965	267.213
882.093	274.426
882.221	252.383
882.349	291.957
882.477	281.426
882.605	271.809
882.733	261.638
882.862	294.702
882.990	267.894
883.118	257.383
883.246	265.638
883.374	261.851
883.502	258.191
883.630	244.936
883.758	259.574
883.887	272.021
884.015	248.277
884.143	263.936
884.271	276.638
884.399	250.681
884.527	261.617
884.655	253.638
884.783	270.553
884.912	274.787
885.040	256.468
885.168	321.617
885.296	259.723
885.424	272.830
885.552	276.617
885.680	267.404
885.808	258.021
885.937	275.511
886.065	274.128
886.193	250.681
886.321	299.638
886.449	259.681
886.577	311.149
886.705	256.191
886.833	254.106
886.962	260.809
887.090	257.511
887.218	268.702
887.346	285.851
887.474	301.596
887.602	273.298
887.730	267.511
887.858	291.745
887.987	258.787
888.115	302.894
888.243	266.085
888.371	269.957
888.499	255.979
888.627	277.872
888.755	273.213
888.883	269.957
889.012	256.362
889.140	268.596
889.268	289.915
889.396	280.745
889.524	266.872
889.652	256.553
889.780	246.383
889.908	289.000
890.037	258.043
890.165	265.638
890.293	292.809
890.421	317.106
890.549	278.915
890.677	260.851
890.805	256.553
890.933	290.234
891.062	264.085
891.190	261.383
891.318	278.511
891.446	267.553
891.574	257.830
891.702	258.915
891.830	270.596
891.958	297.404
892.087	298.149
892.215	274.915
892.343	275.574
892.471	284.532
892.599	269.383
892.727	290.447
892.855	259.149
892.983	254.489
893.112	270.553
893.240	265.298
893.368	300.447
893.496	266.298
893.624	275.574
893.752	332.255
893.880	303.851
894.008	251.426
894.137	270.574
894.265	274.340
894.393	272.638
894.521	261.681
894.649	284.468
894.777	269.340
894.905	252.915
895.033	295.915
895.162	263.383
895.290	302.000
895.418	288.617
895.546	281.489
895.674	351.553
895.802	260.362
895.930	280.723
896.058	248.660
896.187	266.851
896.315	261.532
896.443	262.170
896.571	263.681
896.699	270.000
896.827	277.426
896.955	277.043
897.083	261.085
897.212	305.383
897.340	272.787
897.468	253.745
897.596	261.234
897.724	307.830
897.852	271.447
897.980	268.723
898.108	275.170
898.237	262.362
898.365	254.979
898.493	275.383
898.621	269.106
898.749	268.532
898.877	273.319
899.005	247.830
899.133	264.106
899.262	282.255
899.390	304.872
899.518	268.681
899.646	271.681
899.774	293.766
899.902	347.723
900.030	283.234
900.158	270.809
900.287	290.511
900.415	250.213
900.543	279.191
900.671	271.766
900.799	295.234
900.927	260.043
901.055	259.000
901.183	276.213
901.312	294.255
901.440	277.915
901.568	282.234
901.696	271.936
901.824	278.191
901.952	283.936
902.080	385.915
902.208	300.660
902.337	265.404
902.465	274.191
902.593	273.362
902.721	276.489
902.849	279.191
902.977	276.745
903.105	267.128
903.233	282.319
903.362	266.809
903.490	274.596
903.618	265.149
903.746	287.149
903.874	260.128
904.002	276.851
904.130	270.596
904.258	288.766
904.387	259.872
904.515	288.191
904.643	248.702
904.771	268.043
904.899	281.894
905.027	288.851
905.155	275.234
905.283	273.043
905.412	296.617
905.540	266.894
905.668	266.064
905.796	261.064
905.924	264.319
906.052	270.830
906.180	286.255
906.308	275.468
906.437	295.277
906.565	268.723
906.693	270.702
906.821	250.298
906.949	269.106
907.077	282.936
907.205	271.936
907.333	272.234
907.462	257.872
907.590	266.383
907.718	284.106
907.846	309.064
907.974	261.489
908.102	268.894
908.230	297.957
908.358	297.553
908.487	275.936
908.615	273.255
908.743	280.745
908.871	323.638
908.999	272.596
909.127	298.447
909.255	250.574
909.383	262.277
909.512	301.340
909.640	272.149
909.768	268.723
909.896	321.468
910.024	293.191
910.152	278.681
910.280	318.809
910.408	267.319
910.537	270.723
910.665	300.787
910.793	276.957
910.921	285.404
911.049	258.681
911.177	260.234
911.305	283.894
911.433	271.787
911.562	270.234
911.690	272.723
911.818	320.787
911.946	266.553
912.074	285.234
912.202	300.894
912.330	268.085
912.458	274.638
912.587	287.447
912.715	298.021
912.843	299.021
912.971	290.915
913.099	310.149
913.227	292.511
913.355	276.894
913.483	287.532
913.612	290.383
913.740	404.064
913.868	290.277
